Quasi static measurement routine
Tip parameters (shape,radius, material...) 
08.09.2022

Piezo position[nm]	MEMS displ.[nm]	Time[ms]	Cap [pf]	Temp [°C]	Rh [%]
eoh
1,288003	-0,242984	0,202	-0,076787	22,500000	54,390000
1,291047	-0,195544	0,352	-0,076767	22,500000	54,390000
1,294050	-0,141162	0,502	-0,076744	22,500000	54,390000
1,297041	-0,227942	0,652	-0,076780	22,500000	54,390000
1,300077	0,016199	0,802	-0,076677	22,500000	54,390000
1,303024	-0,055539	0,952	-0,076708	22,500000	54,390000
1,306088	0,109921	1,102	-0,076638	22,500000	54,390000
1,309112	-0,109921	1,252	-0,076730	22,500000	54,390000
1,312032	-0,093722	1,402	-0,076724	22,500000	54,390000
1,315112	-0,305465	1,552	-0,076813	22,480000	54,345000
1,318077	-0,305465	1,703	-0,076813	22,480000	54,345000
1,321044	-0,211743	1,853	-0,076773	22,480000	54,345000
1,324003	-0,219842	2,004	-0,076777	22,480000	54,345000
1,327096	-0,124963	2,154	-0,076737	22,480000	54,345000
1,330047	-0,078680	2,305	-0,076717	22,480000	54,345000
1,333092	-0,116864	2,455	-0,076733	22,480000	54,345000
1,336087	0,093722	2,605	-0,076645	22,480000	54,345000
1,339108	-0,093722	2,755	-0,076724	22,480000	54,345000
1,342097	-0,141162	2,905	-0,076744	22,480000	54,345000
1,345049	-0,251083	3,056	-0,076790	22,480000	54,345000
1,348033	-0,282324	3,207	-0,076803	22,480000	54,345000
1,351077	-0,274224	3,357	-0,076800	22,480000	54,345000
1,354083	-0,282324	3,508	-0,076803	22,480000	54,345000
1,357112	-0,227942	3,658	-0,076780	22,480000	54,345000
1,360087	0,156204	3,808	-0,076618	22,480000	54,345000
1,363058	0,016199	3,958	-0,076677	22,480000	54,345000
1,366062	-0,313564	4,109	-0,076816	22,480000	54,345000
1,369090	-0,227942	4,260	-0,076780	22,480000	54,345000
1,372108	-0,109921	4,411	-0,076730	22,480000	54,345000
1,375050	-0,211743	4,561	-0,076773	22,480000	54,345000
1,378060	-0,251083	4,711	-0,076790	22,480000	54,345000
1,381110	-0,047440	4,862	-0,076704	22,480000	54,345000
1,384089	-0,297366	5,012	-0,076810	22,480000	54,345000
1,387109	-0,156204	5,162	-0,076750	22,480000	54,345000
1,390113	-0,172403	5,312	-0,076757	22,480000	54,345000
1,393130	-0,376046	5,462	-0,076843	22,480000	54,345000
1,396033	-0,282324	5,612	-0,076803	22,490000	54,345000
1,399046	-0,093722	5,762	-0,076724	22,490000	54,345000
1,402050	-0,180502	5,912	-0,076760	22,490000	54,345000
1,405043	-0,141162	6,062	-0,076744	22,490000	54,345000
1,408084	-0,085623	6,212	-0,076720	22,490000	54,345000
1,411077	-0,242984	6,362	-0,076787	22,490000	54,345000
1,414059	-0,085623	6,512	-0,076720	22,490000	54,345000
1,417069	-0,023141	6,662	-0,076694	22,490000	54,345000
1,420053	-0,016199	6,813	-0,076691	22,490000	54,345000
1,423050	-0,195544	6,963	-0,076767	22,490000	54,345000
1,425998	-0,219842	7,113	-0,076777	22,490000	54,345000
1,429073	-0,116864	7,263	-0,076733	22,490000	54,345000
1,431998	-0,039340	7,414	-0,076701	22,490000	54,345000
1,435046	-0,180502	7,564	-0,076760	22,500000	54,350000
1,438079	-0,344805	7,714	-0,076830	22,500000	54,350000
1,441079	-0,407287	7,865	-0,076856	22,500000	54,350000
1,444125	-0,336706	8,015	-0,076826	22,500000	54,350000
1,447053	-0,078680	8,165	-0,076717	22,500000	54,350000
1,450057	-0,149261	8,315	-0,076747	22,500000	54,350000
1,453059	-0,211743	8,465	-0,076773	22,500000	54,350000
1,456121	-0,055539	8,615	-0,076708	22,500000	54,350000
1,459053	-0,211743	8,765	-0,076773	22,500000	54,350000
1,462072	-0,321664	8,916	-0,076820	22,500000	54,350000
1,465129	-0,289266	9,066	-0,076806	22,500000	54,350000
1,468062	-0,227942	9,216	-0,076780	22,500000	54,350000
1,471078	-0,085623	9,367	-0,076720	22,500000	54,350000
1,474054	-0,141162	9,517	-0,076744	22,500000	54,350000
1,477046	-0,251083	9,667	-0,076790	22,500000	54,365000
1,480068	-0,282324	9,818	-0,076803	22,500000	54,365000
1,483125	-0,211743	9,968	-0,076773	22,500000	54,365000
1,486086	-0,116864	10,118	-0,076733	22,500000	54,365000
1,489055	-0,251083	10,268	-0,076790	22,500000	54,365000
1,492078	-0,149261	10,418	-0,076747	22,500000	54,365000
1,495095	-0,227942	10,568	-0,076780	22,500000	54,365000
1,498049	-0,188602	10,718	-0,076764	22,500000	54,365000
1,501088	0,016199	10,868	-0,076677	22,500000	54,365000
1,504059	-0,251083	11,018	-0,076790	22,500000	54,365000
1,507054	-0,023141	11,168	-0,076694	22,500000	54,365000
1,510139	-0,172403	11,318	-0,076757	22,500000	54,365000
1,513076	-0,407287	11,468	-0,076856	22,500000	54,365000
1,516077	-0,085623	11,618	-0,076720	22,490000	54,385000
1,519125	-0,093722	11,768	-0,076724	22,490000	54,385000
1,522075	-0,203643	11,918	-0,076770	22,490000	54,385000
1,525040	-0,109921	12,068	-0,076730	22,490000	54,385000
1,528091	-0,415386	12,218	-0,076859	22,490000	54,385000
1,531081	-0,211743	12,368	-0,076773	22,490000	54,385000
1,534160	-0,266125	12,518	-0,076796	22,490000	54,385000
1,537058	-0,305465	12,668	-0,076813	22,490000	54,385000
1,540105	-0,219842	12,818	-0,076777	22,490000	54,385000
1,543029	-0,211743	12,969	-0,076773	22,490000	54,385000
1,546090	-0,242984	13,119	-0,076787	22,490000	54,385000
1,549078	-0,289266	13,270	-0,076806	22,490000	54,385000
1,552061	-0,297366	13,420	-0,076810	22,490000	54,385000
1,555116	-0,109921	13,571	-0,076730	22,480000	54,375000
1,558069	-0,156204	13,721	-0,076750	22,480000	54,375000
1,561007	-0,305465	13,871	-0,076813	22,480000	54,375000
1,564083	-0,180502	14,021	-0,076760	22,480000	54,375000
1,567070	-0,392245	14,172	-0,076850	22,480000	54,375000
1,570040	-0,195544	14,322	-0,076767	22,480000	54,375000
1,573079	0,047440	14,472	-0,076664	22,480000	54,375000
1,576070	-0,328606	14,622	-0,076823	22,480000	54,375000
1,579093	-0,274224	14,772	-0,076800	22,480000	54,375000
1,582064	-0,195544	14,923	-0,076767	22,480000	54,375000
1,585073	-0,164303	15,073	-0,076753	22,480000	54,375000
1,588058	-0,282324	15,223	-0,076803	22,480000	54,375000
1,591047	-0,062481	15,374	-0,076710	22,480000	54,375000
1,594099	-0,251083	15,524	-0,076790	22,480000	54,375000
1,597005	-0,062481	15,674	-0,076710	22,500000	54,350000
1,600047	-0,321664	15,824	-0,076820	22,500000	54,350000
1,603080	-0,133062	15,975	-0,076740	22,500000	54,350000
1,606077	-0,078680	16,125	-0,076717	22,500000	54,350000
1,609104	-0,274224	16,276	-0,076800	22,500000	54,350000
1,612104	-0,289266	16,426	-0,076806	22,500000	54,350000
1,615050	-0,203643	16,576	-0,076770	22,500000	54,350000
1,618092	-0,141162	16,726	-0,076744	22,500000	54,350000
1,621034	-0,203643	16,876	-0,076770	22,500000	54,350000
1,624033	-0,399187	17,027	-0,076853	22,500000	54,350000
1,627093	-0,062481	17,178	-0,076710	22,500000	54,350000
1,630078	-0,305465	17,328	-0,076813	22,500000	54,350000
1,633101	-0,055539	17,478	-0,076708	22,500000	54,350000
1,636087	-0,423486	17,628	-0,076863	22,500000	54,335000
1,639075	-0,242984	17,778	-0,076787	22,500000	54,335000
1,642081	-0,259182	17,929	-0,076793	22,500000	54,335000
1,645029	-0,242984	18,080	-0,076787	22,500000	54,335000
1,648055	-0,141162	18,230	-0,076744	22,500000	54,335000
1,651045	-0,266125	18,381	-0,076796	22,500000	54,335000
1,654042	-0,070581	18,531	-0,076714	22,500000	54,335000
1,657055	-0,070581	18,681	-0,076714	22,500000	54,335000
1,660027	-0,141162	18,831	-0,076744	22,500000	54,335000
1,663097	-0,188602	18,981	-0,076764	22,500000	54,335000
1,666062	-0,227942	19,131	-0,076780	22,500000	54,335000
1,669100	-0,149261	19,281	-0,076747	22,500000	54,335000
1,672073	-0,234884	19,431	-0,076783	22,500000	54,335000
1,675046	-0,328606	19,581	-0,076823	22,480000	54,375000
1,678048	-0,266125	19,731	-0,076796	22,480000	54,375000
1,681039	-0,227942	19,881	-0,076780	22,480000	54,375000
1,684074	-0,188602	20,031	-0,076764	22,480000	54,375000
1,687104	-0,211743	20,182	-0,076773	22,480000	54,375000
1,690077	-0,282324	20,333	-0,076803	22,480000	54,375000
1,693055	-0,124963	20,484	-0,076737	22,480000	54,375000
1,696066	-0,446627	20,634	-0,076873	22,480000	54,375000
1,699073	-0,321664	20,784	-0,076820	22,480000	54,375000
1,702108	-0,509108	20,934	-0,076899	22,480000	54,375000
1,705076	-0,282324	21,084	-0,076803	22,480000	54,375000
1,708029	-0,266125	21,235	-0,076796	22,480000	54,375000
1,711116	-0,282324	21,385	-0,076803	22,480000	54,375000
1,714056	-0,242984	21,536	-0,076787	22,480000	54,375000
1,717006	-0,305465	21,686	-0,076813	22,480000	54,375000
1,720025	-0,352905	21,836	-0,076833	22,480000	54,375000
1,723049	0,109921	21,986	-0,076638	22,480000	54,375000
1,726098	-0,156204	22,137	-0,076750	22,480000	54,375000
1,728988	-0,470925	22,287	-0,076883	22,480000	54,375000
1,732028	-0,361004	22,437	-0,076836	22,480000	54,375000
1,735086	-0,289266	22,588	-0,076806	22,480000	54,375000
1,738079	-0,361004	22,739	-0,076836	22,480000	54,375000
1,741070	-0,289266	22,890	-0,076806	22,480000	54,375000
1,744078	-0,376046	23,040	-0,076843	22,480000	54,375000
1,747034	-0,282324	23,191	-0,076803	22,480000	54,375000
1,750045	-0,367947	23,341	-0,076839	22,480000	54,375000
1,753082	-0,384145	23,492	-0,076846	22,480000	54,375000
1,756049	-0,133062	23,642	-0,076740	22,500000	54,390000
1,759046	-0,352905	23,792	-0,076833	22,500000	54,390000
1,762037	-0,376046	23,942	-0,076843	22,500000	54,390000
1,765074	-0,266125	24,092	-0,076796	22,500000	54,390000
1,768053	-0,180502	24,242	-0,076760	22,500000	54,390000
1,771085	-0,446627	24,392	-0,076873	22,500000	54,390000
1,774083	-0,438527	24,544	-0,076869	22,500000	54,390000
1,777051	-0,564648	24,694	-0,076922	22,500000	54,390000
1,780105	-0,259182	24,844	-0,076793	22,500000	54,390000
1,783062	-0,297366	24,994	-0,076810	22,500000	54,390000
1,786056	-0,501009	25,144	-0,076896	22,500000	54,390000
1,789080	-0,188602	25,295	-0,076764	22,500000	54,390000
1,792128	-0,172403	25,445	-0,076757	22,500000	54,390000
1,795014	-0,321664	25,595	-0,076820	22,500000	54,390000
1,798016	-0,571590	25,745	-0,076925	22,500000	54,390000
1,801110	-0,509108	25,895	-0,076899	22,500000	54,390000
1,803998	-0,297366	26,045	-0,076810	22,500000	54,390000
1,807041	-0,282324	26,195	-0,076803	22,500000	54,390000
1,810066	-0,525307	26,346	-0,076906	22,500000	54,390000
1,813075	-0,352905	26,496	-0,076833	22,500000	54,390000
1,816019	-0,494067	26,646	-0,076893	22,500000	54,390000
1,819054	-0,109921	26,796	-0,076730	22,500000	54,390000
1,821987	-0,156204	26,946	-0,076750	22,500000	54,390000
1,825041	-0,392245	27,097	-0,076850	22,500000	54,390000
1,828072	-0,266125	27,248	-0,076796	22,500000	54,390000
1,831042	-0,384145	27,398	-0,076846	22,500000	54,390000
1,833997	-0,525307	27,548	-0,076906	22,500000	54,390000
1,837027	-0,525307	27,698	-0,076906	22,500000	54,405000
1,840027	-0,093722	27,849	-0,076724	22,500000	54,405000
1,843044	-0,367947	27,999	-0,076839	22,500000	54,405000
1,846054	-0,016199	28,149	-0,076691	22,500000	54,405000
1,849116	-0,423486	28,299	-0,076863	22,500000	54,405000
1,852068	-0,328606	28,449	-0,076823	22,500000	54,405000
1,855067	-0,540349	28,600	-0,076912	22,500000	54,405000
1,858035	-0,415386	28,751	-0,076859	22,500000	54,405000
1,861090	-0,603988	28,902	-0,076939	22,500000	54,405000
1,864066	-0,650270	29,052	-0,076958	22,500000	54,405000
1,867029	-0,462826	29,203	-0,076879	22,500000	54,405000
1,870094	-0,485967	29,354	-0,076889	22,500000	54,405000
1,873039	-0,392245	29,504	-0,076850	22,500000	54,405000
1,876029	-0,399187	29,654	-0,076853	22,490000	54,360000
1,879005	-0,367947	29,804	-0,076839	22,490000	54,360000
1,882060	-0,234884	29,955	-0,076783	22,490000	54,360000
1,885060	-0,313564	30,105	-0,076816	22,490000	54,360000
1,888023	-0,532250	30,255	-0,076909	22,490000	54,360000
1,891005	-0,564648	30,406	-0,076922	22,490000	54,360000
1,894046	-0,438527	30,556	-0,076869	22,490000	54,360000
1,897082	-0,399187	30,707	-0,076853	22,490000	54,360000
1,900046	-0,431585	30,858	-0,076866	22,490000	54,360000
1,903111	-0,587789	31,008	-0,076932	22,490000	54,360000
1,906061	-0,814573	31,158	-0,077028	22,490000	54,360000
1,909042	-0,610930	31,308	-0,076942	22,490000	54,360000
1,912074	-0,431585	31,458	-0,076866	22,490000	54,360000
1,915045	-0,743993	31,608	-0,076998	22,480000	54,400000
1,918075	-0,556548	31,758	-0,076919	22,480000	54,400000
1,921092	-0,352905	31,908	-0,076833	22,480000	54,400000
1,923992	-0,454726	32,058	-0,076876	22,480000	54,400000
1,927117	-0,579689	32,208	-0,076929	22,480000	54,400000
1,930051	-0,540349	32,359	-0,076912	22,480000	54,400000
1,933046	-0,704652	32,509	-0,076981	22,480000	54,400000
1,935991	-0,595888	32,660	-0,076936	22,480000	54,400000
1,939047	-0,571590	32,810	-0,076925	22,480000	54,400000
1,942036	-0,556548	32,960	-0,076919	22,480000	54,400000
1,945036	-0,571590	33,110	-0,076925	22,480000	54,400000
1,948083	-0,211743	33,260	-0,076773	22,480000	54,400000
1,951019	-0,737050	33,410	-0,076995	22,480000	54,400000
1,954083	-0,477868	33,560	-0,076886	22,490000	54,375000
1,957078	-0,697710	33,710	-0,076979	22,490000	54,375000
1,960049	-0,501009	33,860	-0,076896	22,490000	54,375000
1,963005	-0,454726	34,010	-0,076876	22,490000	54,375000
1,966077	-0,477868	34,161	-0,076886	22,490000	54,375000
1,968987	-0,556548	34,311	-0,076919	22,490000	54,375000
1,972045	-0,728951	34,461	-0,076992	22,490000	54,375000
1,975020	-0,462826	34,612	-0,076879	22,490000	54,375000
1,978065	-0,830772	34,762	-0,077035	22,490000	54,375000
1,981020	-0,540349	34,912	-0,076912	22,490000	54,375000
1,984100	-0,814573	35,062	-0,077028	22,490000	54,375000
1,987055	-0,697710	35,212	-0,076979	22,490000	54,375000
1,989979	-0,760191	35,362	-0,077005	22,490000	54,375000
1,993041	-0,712752	35,512	-0,076985	22,490000	54,375000
1,996026	-0,807631	35,662	-0,077025	22,500000	54,350000
1,999026	-0,799532	35,813	-0,077021	22,500000	54,350000
2,002061	-0,791432	35,963	-0,077018	22,500000	54,350000
2,005022	-0,674569	36,113	-0,076969	22,500000	54,350000
2,008036	-0,595888	36,264	-0,076936	22,500000	54,350000
2,011026	-0,681511	36,415	-0,076972	22,500000	54,350000
2,014067	-0,532250	36,565	-0,076909	22,500000	54,350000
2,017054	-0,776390	36,715	-0,077012	22,500000	54,350000
2,019997	-0,737050	36,865	-0,076995	22,500000	54,350000
2,023045	-0,603988	37,015	-0,076939	22,500000	54,350000
2,026052	-0,728951	37,165	-0,076992	22,500000	54,350000
2,029061	-0,878212	37,315	-0,077055	22,500000	54,350000
2,032086	-0,799532	37,465	-0,077021	22,500000	54,350000
2,035030	-0,689610	37,615	-0,076975	22,490000	54,375000
2,038015	-0,986976	37,765	-0,077101	22,490000	54,375000
2,041013	-0,916395	37,915	-0,077071	22,490000	54,375000
2,044059	-0,886311	38,065	-0,077058	22,490000	54,375000
2,047013	-0,878212	38,216	-0,077055	22,490000	54,375000
2,050048	-0,737050	38,366	-0,076995	22,490000	54,375000
2,053022	-0,862013	38,516	-0,077048	22,490000	54,375000
2,056062	-0,807631	38,666	-0,077025	22,490000	54,375000
2,059072	-1,167478	38,816	-0,077177	22,490000	54,375000
2,062031	-1,144337	38,966	-0,077167	22,490000	54,375000
2,065012	-0,807631	39,116	-0,077025	22,490000	54,375000
2,068006	-1,152436	39,267	-0,077170	22,490000	54,375000
2,071023	-0,689610	39,417	-0,076975	22,490000	54,375000
2,074001	-1,034416	39,567	-0,077121	22,500000	54,390000
2,077095	-0,971934	39,717	-0,077094	22,500000	54,390000
2,080051	-1,065656	39,868	-0,077134	22,500000	54,390000
2,083070	-0,799532	40,018	-0,077021	22,500000	54,390000
2,086006	-0,886311	40,168	-0,077058	22,500000	54,390000
2,089059	-0,862013	40,319	-0,077048	22,500000	54,390000
2,092102	-0,963835	40,471	-0,077091	22,500000	54,390000
2,095019	-0,940693	40,622	-0,077081	22,500000	54,390000
2,098051	-0,886311	40,773	-0,077058	22,500000	54,390000
2,100992	-1,183677	40,923	-0,077184	22,500000	54,390000
2,104030	-0,948793	41,073	-0,077084	22,500000	54,390000
2,106982	-1,065656	41,223	-0,077134	22,500000	54,390000
2,110017	-1,191777	41,374	-0,077187	22,500000	54,390000
2,113106	-1,081855	41,525	-0,077141	22,500000	54,390000
2,116053	-1,206818	41,676	-0,077193	22,490000	54,400000
2,119009	-1,387320	41,826	-0,077270	22,490000	54,400000
2,122042	-1,301698	41,977	-0,077233	22,490000	54,400000
2,125010	-1,301698	42,128	-0,077233	22,490000	54,400000
2,128002	-1,198719	42,278	-0,077190	22,490000	54,400000
2,131017	-1,152436	42,428	-0,077170	22,490000	54,400000
2,134025	-1,332938	42,578	-0,077247	22,490000	54,400000
2,137024	-1,387320	42,728	-0,077270	22,490000	54,400000
2,140052	-1,246159	42,878	-0,077210	22,490000	54,400000
2,143016	-1,262357	43,029	-0,077217	22,490000	54,400000
2,146035	-1,489142	43,179	-0,077313	22,490000	54,400000
2,149010	-1,379221	43,329	-0,077266	22,490000	54,400000
2,152066	-1,395420	43,479	-0,077273	22,490000	54,400000
2,155030	-1,638403	43,629	-0,077375	22,490000	54,400000
2,158032	-1,590964	43,780	-0,077355	22,490000	54,400000
2,161052	-1,449802	43,931	-0,077296	22,490000	54,400000
2,164068	-1,582864	44,081	-0,077352	22,490000	54,400000
2,167002	-1,779565	44,231	-0,077435	22,490000	54,400000
2,170059	-1,756424	44,381	-0,077425	22,490000	54,400000
2,173041	-2,171810	44,532	-0,077601	22,490000	54,400000
2,176050	-1,661545	44,682	-0,077385	22,490000	54,400000
2,179003	-1,756424	44,833	-0,077425	22,490000	54,400000
2,182027	-1,881387	44,983	-0,077478	22,490000	54,400000
2,185015	-1,935769	45,133	-0,077501	22,490000	54,400000
2,188050	-1,857089	45,283	-0,077468	22,490000	54,400000
2,191031	-2,116271	45,433	-0,077577	22,490000	54,400000
2,194111	-2,452977	45,583	-0,077719	22,480000	54,400000
2,197007	-2,139412	45,734	-0,077587	22,480000	54,400000
2,199985	-2,194951	45,884	-0,077610	22,480000	54,400000
2,203036	-2,367354	46,034	-0,077683	22,480000	54,400000
2,206028	-2,492317	46,184	-0,077736	22,480000	54,400000
2,209009	-2,687861	46,334	-0,077818	22,480000	54,400000
2,212081	-2,461076	46,484	-0,077723	22,480000	54,400000
2,215004	-2,938944	46,634	-0,077924	22,480000	54,400000
2,218008	-2,899604	46,784	-0,077908	22,480000	54,400000
2,221103	-3,096305	46,934	-0,077991	22,480000	54,400000
2,224040	-3,063907	47,085	-0,077977	22,480000	54,400000
2,227056	-3,511691	47,236	-0,078166	22,480000	54,400000
2,230000	-3,111347	47,386	-0,077997	22,480000	54,400000
2,233073	-3,479293	47,536	-0,078152	22,480000	54,400000
2,236041	-3,942119	47,686	-0,078348	22,500000	54,380000
2,239030	-4,216343	47,836	-0,078463	22,500000	54,380000
2,242023	-4,772891	47,986	-0,078698	22,500000	54,380000
2,245053	-4,937195	48,136	-0,078768	22,500000	54,380000
2,248043	-5,322497	48,286	-0,078930	22,500000	54,380000
2,251023	-6,246992	48,436	-0,079320	22,500000	54,380000
2,254094	-6,654278	48,586	-0,079492	22,500000	54,380000
2,257055	-8,065897	48,736	-0,080088	22,500000	54,380000
2,260080	-8,558807	48,887	-0,080296	22,500000	54,380000
2,263003	-17,627879	49,037	-0,084123	22,500000	54,380000
2,266039	-14,719018	49,187	-0,082896	22,500000	54,380000
2,268994	-11,889996	49,337	-0,081702	22,500000	54,380000
2,272023	-11,325348	49,488	-0,081463	22,500000	54,380000
2,274988	-6,004008	49,638	-0,079218	22,480000	54,385000
2,278015	-5,972767	49,789	-0,079205	22,480000	54,385000
2,281034	-0,242984	49,939	-0,076787	22,480000	54,385000
2,284032	-0,133062	50,090	-0,076740	22,480000	54,385000
2,286986	5,588622	50,240	-0,074326	22,480000	54,385000
2,290037	6,575598	50,391	-0,073909	22,480000	54,385000
2,292994	11,584531	50,541	-0,071795	22,480000	54,385000
2,296021	12,164220	50,692	-0,071551	22,480000	54,385000
2,299055	16,662887	50,842	-0,069652	22,480000	54,385000
2,302028	21,029649	50,992	-0,067810	22,480000	54,385000
2,305059	24,124796	51,143	-0,066503	22,480000	54,385000
2,308046	27,032500	51,293	-0,065276	22,480000	54,385000
2,311015	27,354164	51,444	-0,065141	22,480000	54,385000
2,314031	32,974026	51,594	-0,062769	22,480000	54,385000
2,316984	34,087122	51,744	-0,062299	22,480000	54,385000
2,320009	36,344555	51,894	-0,061347	22,480000	54,385000
2,323028	39,793765	52,044	-0,059891	22,480000	54,385000
2,326014	45,100063	52,194	-0,057652	22,480000	54,385000
2,329080	48,329430	52,344	-0,056289	22,480000	54,385000
2,332043	48,368770	52,494	-0,056272	22,480000	54,385000
2,335051	51,488216	52,644	-0,054956	22,480000	54,385000
2,338002	54,167978	52,795	-0,053825	22,480000	54,385000
2,340999	57,546607	52,945	-0,052399	22,480000	54,385000
2,344027	62,892245	53,095	-0,050144	22,480000	54,385000
2,347005	65,901770	53,245	-0,048874	22,480000	54,385000
2,350014	69,311639	53,395	-0,047435	22,480000	54,385000
2,353040	69,185519	53,545	-0,047488	22,480000	54,385000
2,356029	74,774141	53,695	-0,045129	22,480000	54,385000
2,359085	75,071507	53,847	-0,045004	22,480000	54,385000
2,362046	78,410795	53,998	-0,043595	22,480000	54,385000
2,364995	84,312981	54,148	-0,041104	22,480000	54,385000
2,368021	85,402936	54,298	-0,040644	22,480000	54,385000
2,370987	90,167728	54,448	-0,038633	22,480000	54,385000
2,374107	91,249583	54,598	-0,038177	22,480000	54,385000
2,377030	93,248991	54,749	-0,037333	22,480000	54,385000
2,380076	97,896919	54,900	-0,035372	22,480000	54,385000
2,383040	98,844555	55,050	-0,034972	22,480000	54,385000
2,386075	103,132637	55,200	-0,033162	22,480000	54,385000
2,389085	106,227784	55,350	-0,031856	22,480000	54,385000
2,392018	109,191027	55,500	-0,030605	22,480000	54,385000
2,394984	110,970592	55,650	-0,029854	22,490000	54,375000
2,398010	114,684769	55,801	-0,028287	22,490000	54,375000
2,401041	120,234051	55,951	-0,025945	22,490000	54,375000
2,404061	120,305789	56,101	-0,025915	22,490000	54,375000
2,407023	125,924495	56,251	-0,023544	22,490000	54,375000
2,409988	129,013857	56,402	-0,022240	22,490000	54,375000
2,413011	131,944702	56,552	-0,021003	22,490000	54,375000
2,416015	132,054623	56,703	-0,020957	22,490000	54,375000
2,419077	135,041006	56,854	-0,019697	22,490000	54,375000
2,422005	138,198636	57,004	-0,018364	22,490000	54,375000
2,425017	142,376796	57,154	-0,016601	22,490000	54,375000
2,428087	146,891662	57,305	-0,014696	22,490000	54,375000
2,431079	148,185260	57,455	-0,014150	22,490000	54,375000
2,434040	152,135478	57,605	-0,012483	22,490000	54,375000
2,437048	155,153103	57,755	-0,011209	22,490000	54,375000
2,440014	155,780232	57,905	-0,010945	22,490000	54,375000
2,443010	161,579439	58,055	-0,008498	22,490000	54,375000
2,446005	161,932344	58,205	-0,008349	22,490000	54,375000
2,449001	166,705235	58,356	-0,006334	22,490000	54,375000
2,452027	170,860254	58,506	-0,004581	22,490000	54,375000
2,455048	171,392504	58,656	-0,004356	22,490000	54,375000
2,458041	173,979700	58,806	-0,003265	22,490000	54,375000
2,461040	178,548948	58,956	-0,001336	22,490000	54,375000
2,464040	179,497741	59,106	-0,000936	22,490000	54,375000
2,467102	182,750250	59,256	0,000437	22,490000	54,375000
2,470044	188,832938	59,406	0,003003	22,490000	54,375000
2,473036	190,023558	59,556	0,003506	22,490000	54,375000
2,476068	192,147928	59,706	0,004402	22,490000	54,375000
2,479043	196,960160	59,856	0,006433	22,490000	54,375000
2,482031	197,853414	60,006	0,006810	22,490000	54,375000
2,485044	200,722934	60,156	0,008021	22,490000	54,375000
2,488058	207,134229	60,307	0,010727	22,490000	54,375000
2,491000	207,314731	60,458	0,010803	22,490000	54,375000
2,494019	213,185676	60,609	0,013280	22,490000	54,375000
2,497039	213,075755	60,759	0,013234	22,490000	54,375000
2,500036	216,069081	60,910	0,014497	22,490000	54,375000
2,503073	222,143670	61,060	0,017061	22,490000	54,375000
2,506049	224,565407	61,211	0,018083	22,490000	54,375000
2,509014	224,988892	61,361	0,018261	22,490000	54,375000
2,512020	230,616854	61,511	0,020636	22,490000	54,375000
2,515042	231,017199	61,661	0,020805	22,500000	54,390000
2,518069	236,385978	61,811	0,023071	22,500000	54,390000
2,521061	238,431668	61,961	0,023934	22,500000	54,390000
2,524064	239,920811	62,112	0,024563	22,500000	54,390000
2,527071	245,752416	62,262	0,027023	22,500000	54,390000
2,530051	246,990475	62,412	0,027546	22,500000	54,390000
2,533062	251,717084	62,562	0,029541	22,500000	54,390000
2,535929	254,240642	62,712	0,030605	22,500000	54,390000
2,539032	255,125796	62,863	0,030979	22,500000	54,390000
2,542010	257,681752	63,013	0,032058	22,500000	54,390000
2,544998	261,740734	63,163	0,033771	22,500000	54,390000
2,548085	264,437852	63,313	0,034909	22,500000	54,390000
2,551004	269,829773	63,464	0,037184	22,500000	54,390000
2,554003	271,240234	63,614	0,037779	22,490000	54,385000
2,557037	272,934177	63,764	0,038494	22,490000	54,385000
2,559999	277,181761	63,914	0,040287	22,490000	54,385000
2,563032	281,696627	64,065	0,042192	22,490000	54,385000
2,565997	282,354997	64,216	0,042470	22,490000	54,385000
2,569006	284,699209	64,367	0,043459	22,490000	54,385000
2,571992	288,006100	64,518	0,044854	22,490000	54,385000
2,575017	292,998834	64,670	0,046961	22,490000	54,385000
2,578043	293,908286	64,821	0,047345	22,490000	54,385000
2,581027	296,950209	64,971	0,048629	22,490000	54,385000
2,584027	303,227285	65,121	0,051278	22,490000	54,385000
2,586995	302,898678	65,271	0,051139	22,490000	54,385000
2,590004	305,893161	65,421	0,052403	22,490000	54,385000
2,593025	308,674745	65,571	0,053577	22,480000	54,400000
2,596058	311,966593	65,721	0,054966	22,480000	54,400000
2,599024	316,192193	65,871	0,056749	22,480000	54,400000
2,602066	320,933844	66,021	0,058750	22,480000	54,400000
2,605039	321,043765	66,172	0,058796	22,480000	54,400000
2,608052	323,685343	66,322	0,059911	22,480000	54,400000
2,611095	326,929752	66,472	0,061280	22,480000	54,400000
2,613983	330,174161	66,622	0,062649	22,480000	54,400000
2,616991	335,778982	66,772	0,065015	22,480000	54,400000
2,620005	339,000250	66,922	0,066374	22,480000	54,400000
2,623001	339,133312	67,073	0,066430	22,480000	54,400000
2,626060	344,713835	67,224	0,068785	22,480000	54,400000
2,628999	345,066739	67,374	0,068934	22,480000	54,400000
2,632063	347,826338	67,524	0,070099	22,480000	54,400000
2,634982	351,548615	67,674	0,071669	22,480000	54,400000
2,637999	353,884729	67,824	0,072655	22,480000	54,400000
2,641036	359,402770	67,974	0,074984	22,480000	54,400000
2,644064	363,055622	68,124	0,076525	22,480000	54,400000
2,647019	366,057048	68,274	0,077792	22,480000	54,400000
2,650022	365,860347	68,424	0,077709	22,480000	54,400000
2,653018	369,184593	68,574	0,079112	22,480000	54,400000
2,656061	371,974276	68,724	0,080289	22,480000	54,400000
2,659038	374,866938	68,874	0,081510	22,480000	54,400000
2,662015	378,048865	69,024	0,082853	22,480000	54,400000
2,665021	380,744826	69,174	0,083990	22,480000	54,400000
2,668073	386,404028	69,325	0,086378	22,480000	54,400000
2,670999	386,968676	69,475	0,086617	22,480000	54,400000
2,674037	392,784082	69,625	0,089071	22,500000	54,380000
2,676999	392,470518	69,775	0,088938	22,500000	54,380000
2,680012	398,638829	69,925	0,091542	22,500000	54,380000
2,683035	399,282157	70,075	0,091813	22,500000	54,380000
2,686051	404,549115	70,225	0,094036	22,500000	54,380000
2,689000	407,865262	70,376	0,095435	22,500000	54,380000
2,692003	407,832864	70,526	0,095421	22,500000	54,380000
2,694971	413,892412	70,676	0,097979	22,500000	54,380000
2,697999	416,227368	70,826	0,098964	22,500000	54,380000
2,701000	416,698293	70,977	0,099163	22,500000	54,380000
2,704036	422,160795	71,127	0,101468	22,500000	54,380000
2,707030	422,953384	71,277	0,101802	22,500000	54,380000
2,710030	425,969852	71,428	0,103075	22,500000	54,380000
2,712981	428,744492	71,578	0,104246	22,490000	54,375000
2,716018	431,903279	71,728	0,105579	22,490000	54,375000
2,719020	438,033407	71,878	0,108166	22,490000	54,375000
2,722048	439,224026	72,028	0,108668	22,490000	54,375000
2,725030	443,958734	72,178	0,110667	22,490000	54,375000
2,727986	445,290516	72,328	0,111229	22,490000	54,375000
2,731032	449,719759	72,478	0,113098	22,490000	54,375000
2,734022	451,177660	72,628	0,113713	22,490000	54,375000
2,737045	453,042848	72,778	0,114500	22,490000	54,375000
2,739987	457,463992	72,928	0,116366	22,490000	54,375000
2,743004	458,764533	73,078	0,116915	22,490000	54,375000
2,746010	461,836539	73,228	0,118211	22,490000	54,375000
2,748957	464,949043	73,378	0,119524	22,490000	54,375000
2,752042	468,342713	73,528	0,120957	22,490000	54,375000
2,755054	473,977618	73,678	0,123334	22,480000	54,345000
2,758050	475,318656	73,828	0,123900	22,480000	54,345000
2,760991	476,822840	73,978	0,124535	22,480000	54,345000
2,764032	481,181502	74,128	0,126375	22,480000	54,345000
2,766993	482,874287	74,278	0,127089	22,480000	54,345000
2,769997	487,200552	74,428	0,128915	22,480000	54,345000
2,772984	492,037082	74,578	0,130956	22,480000	54,345000
2,775974	495,046607	74,728	0,132226	22,480000	54,345000
2,779024	497,923069	74,878	0,133439	22,480000	54,345000
2,782013	497,914970	75,029	0,133436	22,480000	54,345000
2,785007	501,449802	75,179	0,134928	22,480000	54,345000
2,788035	507,100905	75,329	0,137313	22,480000	54,345000
2,791037	506,960900	75,480	0,137253	22,480000	54,345000
2,793986	510,118530	75,630	0,138586	22,490000	54,385000
2,797021	512,948710	75,780	0,139780	22,490000	54,385000
2,799991	516,169977	75,930	0,141140	22,490000	54,385000
2,802966	520,793607	76,080	0,143091	22,490000	54,385000
2,805997	522,197127	76,230	0,143683	22,490000	54,385000
2,809011	527,550865	76,380	0,145942	22,490000	54,385000
2,812005	531,131979	76,531	0,147454	22,490000	54,385000
2,815054	533,013366	76,681	0,148248	22,490000	54,385000
2,817963	534,400687	76,831	0,148833	22,490000	54,385000
2,821028	537,096647	76,981	0,149971	22,490000	54,385000
2,824053	542,928253	77,131	0,152432	22,490000	54,385000
2,827002	546,024558	77,281	0,153738	22,490000	54,385000
2,830028	546,196960	77,431	0,153811	22,490000	54,385000
2,833032	549,245825	77,582	0,155098	22,490000	54,375000
2,835974	555,014949	77,732	0,157532	22,490000	54,375000
2,839024	557,351063	77,882	0,158518	22,490000	54,375000
2,841970	558,055715	78,033	0,158815	22,490000	54,375000
2,844978	561,457485	78,184	0,160251	22,490000	54,375000
2,847967	563,746159	78,335	0,161217	22,490000	54,375000
2,850980	568,377888	78,485	0,163171	22,490000	54,375000
2,854045	572,815231	78,635	0,165044	22,490000	54,375000
2,857033	575,965918	78,785	0,166374	22,490000	54,375000
2,860080	577,909786	78,935	0,167194	22,490000	54,375000
2,862990	580,190360	79,085	0,168156	22,490000	54,375000
2,866038	585,096314	79,235	0,170227	22,490000	54,375000
2,869001	585,629721	79,386	0,170452	22,490000	54,375000
2,872063	590,802957	79,536	0,172635	22,490000	54,375000
2,875007	591,288924	79,687	0,172840	22,490000	54,375000
2,877956	596,516541	79,837	0,175046	22,490000	54,375000
2,881029	599,934510	79,987	0,176488	22,490000	54,375000
2,884030	602,865355	80,137	0,177725	22,490000	54,375000
2,886979	603,249500	80,287	0,177887	22,490000	54,375000
2,890063	606,017199	80,438	0,179055	22,490000	54,375000
2,893009	609,064907	80,588	0,180341	22,490000	54,375000
2,895990	611,847647	80,738	0,181516	22,490000	54,375000
2,899006	615,280658	80,888	0,182964	22,490000	54,375000
2,901990	617,656111	81,038	0,183967	22,490000	54,375000
2,905006	620,759358	81,188	0,185276	22,490000	54,375000
2,907965	625,572747	81,338	0,187308	22,490000	54,375000
2,910991	627,186852	81,489	0,187989	22,490000	54,375000
2,914036	632,336946	81,639	0,190162	22,490000	54,375000
2,916990	633,080939	81,789	0,190476	22,490000	54,375000
2,919997	638,050531	81,939	0,192573	22,490000	54,375000
2,922981	638,966926	82,090	0,192960	22,490000	54,375000
2,926023	643,074506	82,240	0,194693	22,490000	54,375000
2,929061	644,822830	82,390	0,195431	22,490000	54,375000
2,932014	647,628712	82,541	0,196615	22,490000	54,375000
2,935020	650,959901	82,691	0,198021	22,490000	54,375000
2,938029	654,995742	82,842	0,199724	22,490000	54,375000
2,941003	659,973434	82,992	0,201825	22,490000	54,375000
2,944002	660,255758	83,143	0,201944	22,490000	54,375000
2,947041	666,039923	83,293	0,204385	22,490000	54,375000
2,950000	666,133646	83,443	0,204424	22,490000	54,375000
2,952975	668,665303	83,593	0,205493	22,480000	54,375000
2,956018	672,239475	83,743	0,207001	22,480000	54,375000
2,956052	675,100896	83,893	0,208208	22,480000	54,375000
2,955959	674,841714	84,043	0,208099	22,480000	54,375000
2,955972	674,889153	84,193	0,208119	22,480000	54,375000
2,955964	674,629971	84,343	0,208010	22,480000	54,375000
2,955956	674,763033	84,493	0,208066	22,480000	54,375000
2,955965	674,802373	84,644	0,208083	22,480000	54,375000
2,955957	675,139079	84,794	0,208225	22,480000	54,375000
2,953014	674,692452	84,944	0,208036	22,480000	54,375000
2,949954	671,706069	85,094	0,206776	22,480000	54,375000
2,946970	668,586622	85,245	0,205459	22,480000	54,375000
2,943988	665,695118	85,395	0,204239	22,480000	54,375000
2,941006	662,912378	85,545	0,203065	22,480000	54,375000
2,937942	659,659869	85,695	0,201692	22,500000	54,365000
2,934960	653,616521	85,845	0,199142	22,500000	54,365000
2,932003	652,464085	85,996	0,198656	22,500000	54,365000
2,928959	650,622038	86,146	0,197878	22,500000	54,365000
2,926001	645,238216	86,296	0,195606	22,500000	54,365000
2,922987	644,281324	86,446	0,195203	22,500000	54,365000
2,920002	639,030565	86,596	0,192987	22,500000	54,365000
2,917000	638,536498	86,747	0,192778	22,500000	54,365000
2,913976	633,684927	86,897	0,190731	22,500000	54,365000
2,910962	632,250167	87,048	0,190125	22,500000	54,365000
2,907936	629,396845	87,198	0,188921	22,500000	54,365000
2,904992	626,089955	87,348	0,187526	22,500000	54,365000
2,901960	621,786832	87,498	0,185710	22,500000	54,365000
2,898980	617,224526	87,648	0,183785	22,490000	54,385000
2,895989	616,409953	87,798	0,183441	22,490000	54,385000
2,892984	611,353580	87,948	0,181307	22,490000	54,385000
2,889984	610,013700	88,098	0,180742	22,490000	54,385000
2,887063	608,038590	88,248	0,179908	22,490000	54,385000
2,883992	602,144503	88,398	0,177421	22,490000	54,385000
2,880994	598,852655	88,549	0,176032	22,490000	54,385000
2,878060	598,499750	88,699	0,175883	22,490000	54,385000
2,875010	593,272132	88,849	0,173677	22,490000	54,385000
2,871989	592,605663	89,000	0,173396	22,490000	54,385000
2,869039	589,972184	89,150	0,172284	22,490000	54,385000
2,866021	586,319331	89,300	0,170743	22,490000	54,385000
2,862994	580,896170	89,451	0,168454	22,490000	54,385000
2,860006	578,026650	89,602	0,167243	22,480000	54,375000
2,857024	575,158286	89,753	0,166033	22,480000	54,375000
2,854024	574,829680	89,904	0,165894	22,480000	54,375000
2,850961	570,698960	90,054	0,164151	22,480000	54,375000
2,848001	565,745566	90,204	0,162061	22,480000	54,375000
2,844987	564,952977	90,354	0,161726	22,480000	54,375000
2,841978	559,866521	90,504	0,159580	22,480000	54,375000
2,839112	557,993233	90,654	0,158789	22,480000	54,375000
2,835991	554,395920	90,804	0,157271	22,480000	54,375000
2,832984	552,146586	90,954	0,156322	22,480000	54,375000
2,830043	550,649345	91,105	0,155690	22,480000	54,375000
2,826995	546,055798	91,255	0,153751	22,480000	54,375000
2,823956	541,376629	91,406	0,151777	22,480000	54,375000
2,821026	541,619613	91,557	0,151879	22,480000	54,375000
2,818032	535,529982	91,707	0,149310	22,480000	54,375000
2,815042	535,247658	91,857	0,149190	22,480000	54,375000
2,812009	532,551698	92,007	0,148053	22,480000	54,375000
2,808977	528,961326	92,157	0,146538	22,480000	54,375000
2,805994	526,460910	92,307	0,145482	22,480000	54,375000
2,802971	522,604414	92,458	0,143855	22,480000	54,375000
2,799992	517,274974	92,608	0,141606	22,480000	54,375000
2,797053	517,416136	92,758	0,141666	22,480000	54,375000
2,794031	511,364688	92,908	0,139112	22,480000	54,375000
2,791001	510,918061	93,058	0,138923	22,480000	54,375000
2,788037	507,360088	93,208	0,137422	22,480000	54,375000
2,785018	505,150094	93,359	0,136489	22,480000	54,375000
2,782039	502,155611	93,509	0,135226	22,480000	54,375000
2,779028	498,957485	93,660	0,133876	22,480000	54,345000
2,775997	494,787424	93,810	0,132116	22,480000	54,345000
2,772959	489,983292	93,960	0,130089	22,480000	54,345000
2,770005	488,047523	94,110	0,129272	22,480000	54,345000
2,766965	486,895087	94,260	0,128786	22,480000	54,345000
2,764005	481,518208	94,410	0,126517	22,480000	54,345000
2,761002	481,110921	94,560	0,126345	22,480000	54,345000
2,758007	478,006517	94,710	0,125035	22,480000	54,345000
2,755049	475,082614	94,860	0,123801	22,480000	54,345000
2,751970	471,838205	95,010	0,122432	22,480000	54,345000
2,749014	465,842297	95,160	0,119901	22,480000	54,345000
2,746009	465,975359	95,311	0,119958	22,480000	54,345000
2,742958	461,389912	95,461	0,118022	22,480000	54,345000
2,740016	458,764533	95,612	0,116915	22,480000	54,345000
2,736983	456,735041	95,762	0,116058	22,480000	54,345000
2,734006	452,791765	95,912	0,114394	22,480000	54,345000
2,731005	450,989059	96,062	0,113633	22,480000	54,345000
2,728050	447,266782	96,212	0,112062	22,480000	54,345000
2,725004	441,630721	96,362	0,109684	22,480000	54,345000
2,721972	440,399604	96,512	0,109165	22,480000	54,345000
2,718981	438,871122	96,662	0,108520	22,480000	54,345000
2,716051	434,631637	96,812	0,106730	22,480000	54,345000
2,713033	432,507266	96,962	0,105834	22,480000	54,345000
2,709988	429,568322	97,112	0,104594	22,480000	54,345000
2,707007	426,652520	97,262	0,103363	22,480000	54,345000
2,704047	422,372538	97,413	0,101557	22,480000	54,345000
2,700985	420,390486	97,563	0,100721	22,480000	54,415000
2,698053	416,783916	97,713	0,099199	22,480000	54,415000
2,694993	412,011025	97,863	0,097185	22,480000	54,415000
2,691988	410,827347	98,013	0,096685	22,480000	54,415000
2,688995	405,145003	98,164	0,094287	22,480000	54,415000
2,686046	404,517874	98,314	0,094022	22,480000	54,415000
2,683025	399,274058	98,464	0,091810	22,480000	54,415000
2,679973	398,655028	98,614	0,091548	22,480000	54,415000
2,677052	396,327014	98,765	0,090566	22,480000	54,415000
2,674029	393,003925	98,916	0,089164	22,480000	54,415000
2,671006	390,017541	99,066	0,087903	22,480000	54,415000
2,668044	387,141079	99,216	0,086689	22,480000	54,415000
2,664995	381,160212	99,366	0,084166	22,480000	54,415000
2,662033	381,097730	99,516	0,084139	22,480000	54,415000
2,659043	375,587789	99,666	0,081814	22,500000	54,390000
2,656010	375,313564	99,817	0,081698	22,500000	54,390000
2,652993	368,925411	99,968	0,079002	22,500000	54,390000
2,650056	369,207735	100,118	0,079122	22,500000	54,390000
2,647047	364,206902	100,268	0,077011	22,500000	54,390000
2,644003	359,826255	100,418	0,075163	22,500000	54,390000
2,641011	358,234134	100,568	0,074491	22,500000	54,390000
2,637996	357,333938	100,719	0,074111	22,500000	54,390000
2,635023	354,111513	100,870	0,072751	22,500000	54,390000
2,631994	350,937685	101,020	0,071412	22,500000	54,390000
2,629015	344,948719	101,170	0,068884	22,500000	54,390000
2,625969	344,017282	101,320	0,068491	22,500000	54,390000
2,623018	341,531907	101,470	0,067442	22,500000	54,390000
2,620002	335,872704	101,621	0,065054	22,490000	54,375000
2,617032	334,854488	101,771	0,064625	22,490000	54,375000
2,614006	332,651437	101,921	0,063695	22,490000	54,375000
2,611006	329,758775	102,072	0,062474	22,490000	54,375000
2,608049	326,741151	102,222	0,061201	22,490000	54,375000
2,605063	320,541599	102,373	0,058584	22,490000	54,375000
2,602049	319,976951	102,523	0,058346	22,490000	54,375000
2,599038	317,344629	102,673	0,057235	22,490000	54,375000
2,596068	312,076514	102,823	0,055012	22,490000	54,375000
2,593032	311,708568	102,973	0,054857	22,490000	54,375000
2,590050	306,738975	103,124	0,052760	22,490000	54,375000
2,586997	305,563398	103,275	0,052264	22,490000	54,375000
2,584023	302,388413	103,425	0,050924	22,490000	54,375000
2,580976	299,480709	103,576	0,049697	22,490000	54,375000
2,578019	296,314981	103,726	0,048361	22,490000	54,375000
2,575065	293,673402	103,876	0,047246	22,490000	54,375000
2,572021	290,357255	104,027	0,045847	22,490000	54,375000
2,569054	284,361347	104,178	0,043316	22,490000	54,375000
2,566024	283,820997	104,329	0,043088	22,490000	54,375000
2,563035	281,665386	104,479	0,042179	22,490000	54,375000
2,560058	278,122454	104,629	0,040684	22,490000	54,375000
2,557031	273,733709	104,780	0,038832	22,490000	54,375000
2,554037	272,016625	104,930	0,038107	22,490000	54,375000
2,551010	266,169977	105,080	0,035640	22,490000	54,375000
2,547993	266,185019	105,231	0,035646	22,490000	54,375000
2,544962	260,769957	105,381	0,033361	22,490000	54,375000
2,542021	260,400853	105,531	0,033205	22,490000	54,375000
2,538985	255,071414	105,681	0,030956	22,480000	54,400000
2,539013	254,585447	105,832	0,030751	22,480000	54,400000
2,542079	254,608588	105,869	0,030761	22,480000	54,400000
2,545034	257,414470	106,020	0,031945	22,480000	54,400000
2,548094	263,661461	106,170	0,034581	22,480000	54,400000
2,551018	265,472267	106,320	0,035345	22,480000	54,400000
2,554035	266,608505	106,470	0,035825	22,480000	54,400000
2,557088	272,495649	106,620	0,038309	22,480000	54,400000
2,560072	272,353330	106,770	0,038249	22,480000	54,400000
2,563047	275,684519	106,920	0,039655	22,480000	54,400000
2,566091	278,734542	107,070	0,040942	22,480000	54,400000
2,569042	282,535499	107,220	0,042546	22,480000	54,400000
2,572049	284,745492	107,370	0,043479	22,480000	54,400000
2,575046	287,873038	107,520	0,044798	22,480000	54,400000
2,578038	291,000583	107,670	0,046118	22,480000	54,400000
2,581053	294,002009	107,820	0,047385	22,480000	54,400000
2,584054	299,716751	107,970	0,049796	22,480000	54,400000
2,586956	300,962909	108,121	0,050322	22,480000	54,400000
2,590057	303,023641	108,271	0,051192	22,480000	54,400000
2,593066	308,510441	108,421	0,053507	22,480000	54,400000
2,595988	308,487300	108,572	0,053498	22,480000	54,400000
2,598993	312,618021	108,723	0,055241	22,480000	54,400000
2,602008	315,008516	108,874	0,056250	22,480000	54,400000
2,605051	318,856913	109,024	0,057874	22,480000	54,400000
2,608064	323,966510	109,175	0,060030	22,480000	54,400000
2,611012	324,217593	109,326	0,060136	22,480000	54,400000
2,613987	330,182261	109,476	0,062653	22,480000	54,400000
2,617029	330,464585	109,627	0,062772	22,500000	54,390000
2,619992	335,974526	109,777	0,065097	22,500000	54,390000
2,622996	336,421153	109,927	0,065286	22,500000	54,390000
2,626013	341,853571	110,078	0,067578	22,500000	54,390000
2,629084	342,237717	110,228	0,067740	22,500000	54,390000
2,632003	345,091038	110,378	0,068944	22,500000	54,390000
2,635022	348,358588	110,528	0,070323	22,500000	54,390000
2,638026	351,220009	110,678	0,071531	22,500000	54,390000
2,641076	354,464418	110,828	0,072900	22,500000	54,390000
2,644035	358,916802	110,978	0,074779	22,500000	54,390000
2,647005	360,617687	111,128	0,075497	22,500000	54,390000
2,649998	366,048948	111,278	0,077789	22,500000	54,390000
2,653094	366,401853	111,428	0,077938	22,500000	54,390000
2,655976	372,429003	111,578	0,080481	22,500000	54,390000
2,659015	375,298523	111,728	0,081692	22,500000	54,390000
2,662043	377,994483	111,878	0,082830	22,500000	54,390000
2,665089	378,660952	112,028	0,083111	22,500000	54,390000
2,668050	381,756100	112,178	0,084417	22,500000	54,390000
2,670967	384,829264	112,328	0,085714	22,500000	54,390000
2,674019	387,642088	112,479	0,086901	22,500000	54,390000
2,677020	393,427410	112,629	0,089342	22,500000	54,390000
2,679998	396,719259	112,780	0,090731	22,500000	54,390000
2,683023	396,617437	112,931	0,090688	22,500000	54,390000
2,685960	399,626962	113,081	0,091958	22,500000	54,390000
2,689010	405,497908	113,231	0,094436	22,500000	54,390000
2,692057	407,120113	113,381	0,095121	22,500000	54,390000
2,694998	408,609255	113,531	0,095749	22,500000	54,390000
2,697994	412,112846	113,681	0,097228	22,480000	54,385000
2,701037	417,544107	113,831	0,099520	22,480000	54,385000
2,703981	418,414220	113,981	0,099887	22,480000	54,385000
2,706967	423,610597	114,131	0,102080	22,480000	54,385000
2,709996	423,759858	114,282	0,102143	22,480000	54,385000
2,712992	426,848064	114,432	0,103446	22,480000	54,385000
2,716050	431,057464	114,582	0,105222	22,480000	54,385000
2,719001	432,961993	114,732	0,106026	22,480000	54,385000
2,722023	436,637987	114,882	0,107577	22,480000	54,385000
2,725050	442,116688	115,032	0,109889	22,480000	54,385000
2,728046	445,094972	115,183	0,111146	22,480000	54,385000
2,731016	447,367447	115,333	0,112105	22,480000	54,385000
2,733976	448,284999	115,483	0,112492	22,480000	54,385000
2,737033	450,754175	115,633	0,113534	22,480000	54,385000
2,740025	454,014783	115,784	0,114910	22,480000	54,385000
2,743056	458,960077	115,934	0,116997	22,480000	54,385000
2,746005	460,598480	116,085	0,117688	22,480000	54,385000
2,749042	465,262607	116,235	0,119657	22,480000	54,385000
2,752013	469,142245	116,386	0,121294	22,480000	54,385000
2,755032	471,611421	116,536	0,122336	22,480000	54,385000
2,757969	472,073089	116,686	0,122531	22,480000	54,385000
2,760959	476,195711	116,836	0,124271	22,480000	54,385000
2,763970	481,275224	116,986	0,126414	22,480000	54,385000
2,767036	482,317739	117,136	0,126854	22,480000	54,385000
2,770063	484,238466	117,286	0,127665	22,480000	54,385000
2,772959	489,505424	117,436	0,129887	22,480000	54,385000
2,775972	493,275141	117,587	0,131478	22,490000	54,385000
2,778977	494,921644	117,738	0,132173	22,490000	54,385000
2,781992	496,394587	117,888	0,132794	22,490000	54,385000
2,785014	500,226785	118,038	0,134412	22,490000	54,385000
2,788020	505,251916	118,189	0,136532	22,490000	54,385000
2,791032	505,298199	118,340	0,136552	22,490000	54,385000
2,794019	508,606246	118,491	0,137948	22,490000	54,385000
2,797023	511,388987	118,641	0,139122	22,490000	54,385000
2,800000	517,079430	118,791	0,141523	22,490000	54,385000
2,802991	520,456902	118,941	0,142949	22,490000	54,385000
2,805974	522,714335	119,091	0,143901	22,490000	54,385000
2,809053	526,711993	119,241	0,145588	22,490000	54,385000
2,811984	529,384812	119,391	0,146716	22,490000	54,385000
2,815020	529,494733	119,541	0,146763	22,490000	54,385000
2,818035	535,177077	119,691	0,149161	22,500000	54,390000
2,821004	535,638746	119,842	0,149355	22,500000	54,390000
2,824073	541,439111	119,992	0,151803	22,500000	54,390000
2,827015	541,572173	120,142	0,151859	22,500000	54,390000
2,830037	544,645337	120,292	0,153156	22,500000	54,390000
2,832989	550,593806	120,442	0,155667	22,500000	54,390000
2,835974	552,577014	120,593	0,156503	22,500000	54,390000
2,839040	553,611430	120,743	0,156940	22,500000	54,390000
2,842024	559,121371	120,893	0,159265	22,500000	54,390000
2,845043	559,654778	121,043	0,159490	22,500000	54,390000
2,848023	565,000417	121,193	0,161746	22,500000	54,390000
2,851058	565,540766	121,343	0,161974	22,500000	54,390000
2,854045	570,455976	121,493	0,164048	22,500000	54,390000
2,857021	571,654695	121,643	0,164554	22,490000	54,375000
2,860032	576,952894	121,793	0,166790	22,490000	54,375000
2,862981	577,964168	121,944	0,167217	22,490000	54,375000
2,866013	583,083022	122,094	0,169377	22,490000	54,375000
2,868991	583,717093	122,244	0,169645	22,490000	54,375000
2,871974	588,937768	122,394	0,171848	22,490000	54,375000
2,875024	593,091630	122,544	0,173601	22,490000	54,375000
2,878034	594,111004	122,695	0,174031	22,490000	54,375000
2,880967	595,764449	122,845	0,174729	22,490000	54,375000
2,884063	599,353664	122,995	0,176243	22,490000	54,375000
2,886958	601,885321	123,146	0,177312	22,490000	54,375000
2,890000	605,687435	123,296	0,178916	22,490000	54,375000
2,892978	610,915053	123,446	0,181122	22,490000	54,375000
2,895963	611,158037	123,597	0,181225	22,490000	54,375000
2,899011	616,316230	123,747	0,183401	22,490000	54,375000
2,902002	617,130804	123,897	0,183745	22,490000	54,375000
2,904966	620,038507	124,048	0,184972	22,490000	54,375000
2,907977	623,126712	124,198	0,186275	22,490000	54,375000
2,911014	627,782740	124,348	0,188240	22,490000	54,375000
2,914019	628,848397	124,499	0,188690	22,490000	54,375000
2,917007	632,171486	124,650	0,190092	22,490000	54,375000
2,920043	637,344722	124,801	0,192275	22,490000	54,375000
2,923005	639,508433	124,951	0,193188	22,490000	54,375000
2,925984	643,803456	125,102	0,195001	22,490000	54,375000
2,928973	645,801707	125,252	0,195844	22,490000	54,375000
2,931997	648,106580	125,402	0,196817	22,490000	54,375000
2,934974	649,963668	125,552	0,197601	22,490000	54,375000
2,938017	652,895670	125,702	0,198838	22,500000	54,365000
2,940976	656,798449	125,853	0,200485	22,500000	54,365000
2,943966	660,725526	126,003	0,202142	22,500000	54,365000
2,946976	661,901103	126,153	0,202638	22,500000	54,365000
2,950020	668,242974	126,303	0,205314	22,500000	54,365000
2,952944	668,164294	126,453	0,205281	22,500000	54,365000
2,955989	674,120862	126,604	0,207795	22,500000	54,365000
2,959056	674,669311	126,754	0,208026	22,500000	54,365000
2,961983	676,769383	126,905	0,208913	22,500000	54,365000
2,964980	680,743900	127,056	0,210590	22,500000	54,365000
2,968026	685,784073	127,206	0,212717	22,500000	54,365000
2,970914	686,465584	127,357	0,213004	22,500000	54,365000
2,974011	691,921144	127,507	0,215307	22,500000	54,365000
2,977006	692,116688	127,658	0,215389	22,490000	54,400000
2,980021	697,242484	127,808	0,217552	22,490000	54,400000
2,982943	701,404445	127,958	0,219309	22,490000	54,400000
2,986018	703,402695	128,108	0,220152	22,490000	54,400000
2,988941	704,187185	128,258	0,220483	22,490000	54,400000
2,992002	707,823839	128,408	0,222018	22,490000	54,400000
2,995027	710,214335	128,558	0,223026	22,490000	54,400000
2,997948	714,423736	128,708	0,224803	22,490000	54,400000
3,001002	716,884812	128,858	0,225841	22,490000	54,400000
3,004022	721,493400	129,008	0,227786	22,490000	54,400000
3,006961	722,307974	129,159	0,228130	22,490000	54,400000
3,010024	726,988300	129,310	0,230105	22,490000	54,400000
3,012979	728,328181	129,460	0,230670	22,490000	54,400000
3,015947	734,378471	129,610	0,233224	22,490000	54,400000
3,018989	737,154269	129,761	0,234395	22,490000	54,400000
3,021927	737,749000	129,911	0,234646	22,490000	54,400000
3,025038	740,547939	130,061	0,235827	22,490000	54,400000
3,028000	744,043432	130,211	0,237302	22,490000	54,400000
3,031015	749,357829	130,362	0,239545	22,490000	54,400000
3,034028	749,380970	130,512	0,239555	22,490000	54,400000
3,036971	755,298199	130,662	0,242052	22,490000	54,400000
3,040010	756,356913	130,812	0,242499	22,490000	54,400000
3,042940	758,543765	130,962	0,243421	22,490000	54,400000
3,045947	761,538248	131,112	0,244685	22,490000	54,400000
3,049022	765,864512	131,262	0,246511	22,490000	54,400000
3,051982	770,386321	131,412	0,248419	22,490000	54,400000
3,055036	773,796190	131,562	0,249858	22,490000	54,400000
3,057969	773,819331	131,712	0,249868	22,480000	54,415000
3,061009	779,149928	131,862	0,252117	22,480000	54,415000
3,063959	779,399854	132,013	0,252223	22,480000	54,415000
3,066990	782,589881	132,163	0,253569	22,480000	54,415000
3,070013	788,288424	132,314	0,255974	22,480000	54,415000
3,072998	791,133646	132,464	0,257174	22,480000	54,415000
3,075985	791,573330	132,614	0,257360	22,480000	54,415000
3,078964	796,510525	132,764	0,259443	22,480000	54,415000
3,082009	797,513700	132,914	0,259867	22,480000	54,415000
3,085011	802,913720	133,065	0,262146	22,480000	54,415000
3,087971	806,003082	133,215	0,263449	22,480000	54,415000
3,090978	807,045598	133,366	0,263889	22,480000	54,415000
3,093986	809,592297	133,516	0,264964	22,480000	54,415000
3,096905	814,632470	133,666	0,267091	22,480000	54,415000
3,099948	815,635645	133,816	0,267514	22,480000	54,415000
3,102998	819,531481	133,967	0,269158	22,480000	54,415000
3,105909	821,293691	134,117	0,269902	22,480000	54,415000
3,108969	825,949719	134,267	0,271867	22,480000	54,415000
3,112001	830,441443	134,418	0,273762	22,480000	54,415000
3,115001	831,781324	134,568	0,274328	22,480000	54,415000
3,117971	836,805298	134,718	0,276448	22,480000	54,415000
3,120969	837,166303	134,868	0,276600	22,480000	54,415000
3,124018	842,833605	135,018	0,278992	22,480000	54,415000
3,127000	842,802364	135,169	0,278979	22,480000	54,415000
3,129929	845,670727	135,320	0,280189	22,480000	54,415000
3,132934	848,609671	135,470	0,281429	22,480000	54,415000
3,135963	854,644920	135,621	0,283976	22,490000	54,375000
3,139027	854,441277	135,772	0,283890	22,490000	54,375000
3,142001	860,123621	135,922	0,286288	22,490000	54,375000
3,144900	860,343463	136,073	0,286381	22,490000	54,375000
3,147938	865,758525	136,223	0,288666	22,490000	54,375000
3,150984	866,158870	136,373	0,288835	22,490000	54,375000
3,153996	869,466917	136,523	0,290231	22,490000	54,375000
3,156955	873,660119	136,674	0,292000	22,490000	54,375000
3,159919	877,249334	136,825	0,293515	22,490000	54,375000
3,163021	881,591797	136,975	0,295348	22,490000	54,375000
3,165924	882,571831	137,125	0,295761	22,490000	54,375000
3,168960	884,484458	137,275	0,296568	22,490000	54,375000
3,171991	888,403436	137,426	0,298222	22,490000	54,375000
3,174961	890,472267	137,576	0,299095	22,490000	54,400000
3,178031	893,662295	137,726	0,300441	22,490000	54,400000
3,180951	899,768124	137,877	0,303018	22,490000	54,400000
3,183920	901,139246	138,027	0,303597	22,490000	54,400000
3,186937	905,537248	138,177	0,305453	22,490000	54,400000
3,189971	905,662211	138,328	0,305505	22,490000	54,400000
3,192962	911,501916	138,478	0,307970	22,490000	54,400000
3,195952	911,674319	138,628	0,308042	22,490000	54,400000
3,198943	917,427244	138,779	0,310470	22,490000	54,400000
3,201924	920,413627	138,930	0,311730	22,490000	54,400000
3,204921	922,804123	139,080	0,312739	22,490000	54,400000
3,207948	923,548115	139,231	0,313053	22,490000	54,400000
3,210929	928,901853	139,381	0,315312	22,490000	54,400000
3,213975	929,458401	139,531	0,315547	22,490000	54,400000
3,216938	932,241142	139,682	0,316722	22,500000	54,380000
3,219945	938,346971	139,832	0,319298	22,500000	54,380000
3,223005	939,561889	139,982	0,319811	22,500000	54,380000
3,225920	942,062306	140,133	0,320866	22,500000	54,380000
3,228977	947,227442	140,283	0,323046	22,500000	54,380000
3,231976	947,180002	140,433	0,323026	22,500000	54,380000
3,234901	953,395753	140,584	0,325649	22,500000	54,380000
3,237986	953,686176	140,735	0,325771	22,500000	54,380000
3,240968	957,032407	140,886	0,327184	22,500000	54,380000
3,243966	962,260025	141,036	0,329390	22,500000	54,380000
3,246939	962,534249	141,186	0,329505	22,500000	54,380000
3,249987	968,326514	141,336	0,331950	22,500000	54,380000
3,252989	968,703717	141,486	0,332109	22,500000	54,380000
3,255953	974,558464	141,636	0,334580	22,480000	54,375000
3,258897	974,597804	141,786	0,334596	22,480000	54,375000
3,261982	977,411785	141,937	0,335784	22,480000	54,375000
3,264940	980,428253	142,088	0,337057	22,480000	54,375000
3,267921	986,134895	142,238	0,339465	22,480000	54,375000
3,270917	986,612763	142,388	0,339667	22,480000	54,375000
3,273985	989,646586	142,538	0,340947	22,480000	54,375000
3,276988	992,546190	142,688	0,342170	22,480000	54,375000
3,279986	995,649437	142,838	0,343480	22,480000	54,375000
3,282932	998,589538	142,988	0,344721	22,480000	54,375000
3,285934	1004,396845	143,138	0,347171	22,480000	54,375000
3,288970	1007,689851	143,289	0,348561	22,480000	54,375000
3,291965	1008,269541	143,439	0,348806	22,480000	54,375000
3,294896	1010,604497	143,589	0,349791	22,480000	54,375000
3,297959	1013,740142	143,739	0,351114	22,480000	54,375000
3,300901	1016,303040	143,890	0,352196	22,480000	54,375000
3,303912	1020,919727	144,041	0,354144	22,480000	54,375000
3,306962	1025,379054	144,192	0,356026	22,480000	54,375000
3,309925	1028,209234	144,342	0,357220	22,480000	54,375000
3,312913	1028,326098	144,492	0,357270	22,480000	54,375000
3,315895	1032,159453	144,643	0,358887	22,480000	54,375000
3,318916	1034,651770	144,793	0,359939	22,480000	54,375000
3,321905	1039,974267	144,943	0,362185	22,480000	54,375000
3,324971	1043,469759	145,093	0,363660	22,480000	54,375000
3,327922	1043,688444	145,243	0,363752	22,480000	54,375000
3,330878	1046,502425	145,394	0,364940	22,480000	54,375000
3,333884	1049,598730	145,544	0,366247	22,480000	54,375000
3,336945	1054,051114	145,694	0,368125	22,490000	54,400000
3,339965	1055,657120	145,844	0,368803	22,490000	54,400000
3,342875	1061,104580	145,994	0,371102	22,490000	54,400000
3,345918	1061,716667	146,144	0,371360	22,490000	54,400000
3,348964	1067,093546	146,294	0,373629	22,490000	54,400000
3,351863	1069,452801	146,444	0,374625	22,490000	54,400000
3,354945	1070,471018	146,594	0,375055	22,490000	54,400000
3,357944	1073,378721	146,744	0,376282	22,490000	54,400000
3,360944	1076,491225	146,894	0,377595	22,490000	54,400000
3,363850	1079,594472	147,044	0,378905	22,490000	54,400000
3,366935	1083,764533	147,195	0,380665	22,490000	54,400000
3,369959	1088,553623	147,345	0,382686	22,490000	54,400000
3,372922	1089,407537	147,495	0,383046	22,490000	54,400000
3,375906	1093,358912	147,645	0,384713	22,500000	54,405000
3,378941	1096,924985	147,795	0,386218	22,500000	54,405000
3,381899	1100,678503	147,946	0,387802	22,500000	54,405000
3,384933	1102,073923	148,096	0,388391	22,500000	54,405000
3,387901	1106,690610	148,246	0,390339	22,500000	54,405000
3,390945	1108,391495	148,396	0,391057	22,500000	54,405000
3,393911	1109,386571	148,547	0,391477	22,500000	54,405000
3,396897	1113,870196	148,697	0,393369	22,500000	54,405000
3,399912	1118,368863	148,848	0,395268	22,500000	54,405000
3,402945	1119,811722	148,998	0,395876	22,500000	54,405000
3,405917	1124,428410	149,148	0,397825	22,500000	54,405000
3,408879	1125,211743	149,298	0,398155	22,500000	54,405000
3,411883	1130,243817	149,448	0,400279	22,500000	54,405000
3,414874	1130,478701	149,599	0,400378	22,480000	54,400000
3,417941	1133,583105	149,750	0,401688	22,480000	54,400000
3,420861	1136,655111	149,900	0,402984	22,480000	54,400000
3,423859	1139,492234	150,050	0,404182	22,480000	54,400000
3,426930	1145,512441	150,200	0,406722	22,480000	54,400000
3,429860	1148,521966	150,350	0,407992	22,480000	54,400000
3,432913	1148,914211	150,500	0,408158	22,480000	54,400000
3,435909	1153,452218	150,650	0,410073	22,480000	54,400000
3,438916	1154,783999	150,800	0,410635	22,480000	54,400000
3,441883	1157,645420	150,950	0,411842	22,480000	54,400000
3,444891	1160,748667	151,100	0,413152	22,480000	54,400000
3,447871	1164,111097	151,251	0,414571	22,480000	54,400000
3,450867	1166,760775	151,401	0,415689	22,480000	54,400000
3,453919	1171,260599	151,551	0,417588	22,480000	54,400000
3,456880	1172,592380	151,701	0,418150	22,480000	54,385000
3,459883	1178,353405	151,852	0,420581	22,480000	54,385000
3,462929	1178,573247	152,002	0,420674	22,480000	54,385000
3,465851	1183,331096	152,152	0,422682	22,480000	54,385000
3,468905	1184,216251	152,302	0,423055	22,480000	54,385000
3,471844	1187,296357	152,452	0,424355	22,480000	54,385000
3,474912	1190,423902	152,602	0,425675	22,480000	54,385000
3,477884	1193,723850	152,753	0,427067	22,480000	54,385000
3,480938	1199,759099	152,903	0,429614	22,480000	54,385000
3,483878	1202,337039	153,053	0,430702	22,480000	54,385000
3,486915	1202,290756	153,203	0,430683	22,480000	54,385000
3,489862	1207,227951	153,353	0,432766	22,480000	54,385000
3,492888	1208,482209	153,503	0,433295	22,480000	54,385000
3,495862	1211,484792	153,653	0,434563	22,480000	54,375000
3,498863	1217,731783	153,803	0,437199	22,480000	54,375000
3,501898	1218,953643	153,953	0,437714	22,480000	54,375000
3,504892	1223,632813	154,104	0,439689	22,480000	54,375000
3,507874	1223,657111	154,255	0,439699	22,480000	54,375000
3,510880	1226,533573	154,405	0,440913	22,480000	54,375000
3,513889	1230,107746	154,556	0,442421	22,480000	54,375000
3,516915	1232,639403	154,706	0,443490	22,480000	54,375000
3,519877	1235,390903	154,857	0,444651	22,480000	54,375000
3,522911	1240,743483	155,007	0,446910	22,480000	54,375000
3,525920	1241,715418	155,158	0,447320	22,480000	54,375000
3,528849	1245,289590	155,308	0,448828	22,480000	54,375000
3,531916	1250,274224	155,458	0,450932	22,480000	54,375000
3,534877	1251,960067	155,608	0,451643	22,500000	54,405000
3,537887	1253,628555	155,758	0,452347	22,500000	54,405000
3,540905	1257,947877	155,908	0,454170	22,500000	54,405000
3,543834	1259,821164	156,058	0,454960	22,500000	54,405000
3,546952	1264,907620	156,208	0,457107	22,500000	54,405000
3,549926	1268,576672	156,358	0,458655	22,500000	54,405000
3,552950	1268,278149	156,509	0,458529	22,500000	54,405000
3,555942	1271,656778	156,660	0,459955	22,500000	54,405000
3,558943	1275,050448	156,811	0,461387	22,500000	54,405000
3,561899	1280,544191	156,961	0,463706	22,500000	54,405000
3,564953	1281,031315	157,111	0,463911	22,500000	54,405000
3,567876	1283,272549	157,261	0,464857	22,500000	54,405000
3,570926	1287,536332	157,412	0,466656	22,500000	54,405000
3,573949	1289,848147	157,562	0,467632	22,500000	54,405000
3,576934	1293,179336	157,712	0,469038	22,490000	54,400000
3,579861	1295,569831	157,863	0,470046	22,490000	54,400000
3,582893	1301,542598	158,013	0,472567	22,490000	54,400000
3,585838	1304,709484	158,163	0,473903	22,490000	54,400000
3,588924	1304,881887	158,313	0,473976	22,490000	54,400000
3,591846	1310,791016	158,463	0,476470	22,490000	54,400000
3,594851	1313,683677	158,613	0,477690	22,490000	54,400000
3,597865	1316,294015	158,763	0,478792	22,490000	54,400000
3,600881	1316,678160	158,914	0,478954	22,490000	54,400000
3,603889	1322,046940	159,064	0,481220	22,490000	54,400000
3,606856	1325,668552	159,214	0,482748	22,490000	54,400000
3,609922	1328,661878	159,364	0,484011	22,490000	54,400000
3,612891	1328,560056	159,514	0,483968	22,490000	54,400000
3,615917	1331,515199	159,664	0,485215	22,490000	54,400000
3,618869	1334,705226	159,815	0,486562	22,490000	54,400000
3,621840	1339,964085	159,965	0,488781	22,490000	54,400000
3,621891	1340,591214	160,115	0,489045	22,490000	54,400000
3,621888	1340,301948	160,265	0,488923	22,490000	54,400000
3,621865	1340,426911	160,416	0,488976	22,490000	54,400000
3,621856	1340,481293	160,568	0,488999	22,490000	54,400000
3,621841	1340,167728	160,718	0,488867	22,490000	54,400000
3,621849	1340,458151	160,869	0,488989	22,490000	54,400000
3,621890	1340,599313	161,020	0,489049	22,490000	54,400000
3,618860	1339,228192	161,170	0,488470	22,490000	54,400000
3,615910	1334,383562	161,320	0,486426	22,490000	54,400000
3,612847	1334,054956	161,470	0,486287	22,490000	54,400000
3,609860	1328,293931	161,621	0,483856	22,490000	54,385000
3,606824	1328,121529	161,772	0,483783	22,490000	54,385000
3,603838	1322,171903	161,922	0,481272	22,490000	54,385000
3,600888	1321,945118	162,072	0,481177	22,490000	54,385000
3,597902	1319,334780	162,223	0,480075	22,490000	54,385000
3,594912	1313,205809	162,374	0,477489	22,490000	54,385000
3,591901	1310,485551	162,524	0,476341	22,490000	54,385000
3,588860	1309,953301	162,674	0,476116	22,490000	54,385000
3,585929	1303,957392	162,824	0,473586	22,490000	54,385000
3,582840	1301,315814	162,975	0,472471	22,490000	54,385000
3,579885	1300,508183	163,126	0,472130	22,490000	54,385000
3,576861	1297,764783	163,276	0,470973	22,490000	54,385000
3,573845	1294,512274	163,427	0,469600	22,490000	54,385000
3,570895	1291,964418	163,578	0,468525	22,480000	54,375000
3,567850	1288,092880	163,728	0,466891	22,480000	54,375000
3,564856	1283,459993	163,878	0,464936	22,480000	54,375000
3,561913	1281,822747	164,029	0,464245	22,480000	54,375000
3,558921	1277,284740	164,180	0,462330	22,480000	54,375000
3,555895	1276,516449	164,330	0,462006	22,480000	54,375000
3,552883	1273,945451	164,480	0,460921	22,480000	54,375000
3,549838	1267,698460	164,630	0,458285	22,480000	54,375000
3,546900	1265,472267	164,780	0,457345	22,480000	54,375000
3,543895	1264,892578	164,931	0,457101	22,480000	54,375000
3,540880	1259,013533	165,082	0,454620	22,480000	54,375000
3,537897	1258,551864	165,233	0,454425	22,480000	54,375000
3,534946	1253,339288	165,384	0,452225	22,480000	54,375000
3,531894	1252,618437	165,534	0,451921	22,480000	54,375000
3,528902	1247,468343	165,684	0,449748	22,490000	54,360000
3,525881	1246,575089	165,834	0,449371	22,490000	54,360000
3,522869	1243,619946	165,984	0,448124	22,490000	54,360000
3,519828	1240,884645	166,135	0,446969	22,490000	54,360000
3,516948	1236,628962	166,286	0,445173	22,490000	54,360000
3,513907	1231,478867	166,436	0,443000	22,490000	54,360000
3,510948	1230,452551	166,586	0,442567	22,490000	54,360000
3,507911	1228,398761	166,736	0,441700	22,490000	54,360000
3,504937	1224,189361	166,886	0,439924	22,490000	54,360000
3,501872	1219,181585	167,036	0,437811	22,490000	54,360000
3,498865	1216,492567	167,186	0,436676	22,490000	54,360000
3,495872	1216,336363	167,336	0,436610	22,490000	54,360000
3,492850	1212,496066	167,486	0,434989	22,490000	54,360000
3,489853	1207,385312	167,636	0,432833	22,500000	54,390000
3,486868	1206,492058	167,786	0,432456	22,500000	54,390000
3,483908	1201,302623	167,936	0,430266	22,500000	54,390000
3,480986	1200,361930	168,086	0,429869	22,500000	54,390000
3,477932	1195,298615	168,236	0,427732	22,500000	54,390000
3,474911	1192,014866	168,386	0,426346	22,500000	54,390000
3,471909	1192,515875	168,537	0,426558	22,500000	54,390000
3,468891	1186,245742	168,688	0,423912	22,500000	54,390000
3,465941	1185,830356	168,838	0,423736	22,500000	54,390000
3,462840	1182,742150	168,988	0,422433	22,500000	54,390000
3,459915	1180,226692	169,139	0,421372	22,500000	54,390000
3,456884	1176,848064	169,290	0,419946	22,500000	54,390000
3,453939	1172,474359	169,440	0,418100	22,500000	54,390000
3,450890	1171,236300	169,590	0,417578	22,480000	54,415000
3,447905	1166,368530	169,740	0,415523	22,480000	54,415000
3,444892	1162,073506	169,891	0,413711	22,480000	54,415000
3,441909	1159,456226	170,041	0,412606	22,480000	54,415000
3,438956	1159,118363	170,192	0,412464	22,480000	54,415000
3,435938	1155,755933	170,342	0,411045	22,480000	54,415000
3,432877	1149,815564	170,492	0,408538	22,480000	54,415000
3,429944	1148,561306	170,642	0,408009	22,480000	54,415000
3,427002	1143,560473	170,792	0,405898	22,480000	54,415000
3,423896	1142,447377	170,942	0,405429	22,480000	54,415000
3,420909	1140,762691	171,092	0,404718	22,480000	54,415000
3,417907	1135,949302	171,242	0,402687	22,480000	54,415000
3,414886	1131,866021	171,392	0,400963	22,480000	54,415000
3,411913	1128,409869	171,542	0,399505	22,480000	54,415000
3,408882	1128,457309	171,692	0,399525	22,490000	54,375000
3,405898	1123,745742	171,842	0,397537	22,490000	54,375000
3,402882	1122,366521	171,993	0,396955	22,490000	54,375000
3,399925	1118,619946	172,143	0,395374	22,490000	54,375000
3,396916	1116,738559	172,294	0,394580	22,490000	54,375000
3,393942	1110,437185	172,444	0,391920	22,490000	54,375000
3,390914	1110,453384	172,594	0,391927	22,490000	54,375000
3,387941	1106,987976	172,744	0,390465	22,490000	54,375000
3,384931	1104,487559	172,894	0,389410	22,490000	54,375000
3,381882	1098,358588	173,044	0,386823	22,490000	54,375000
3,378929	1095,913711	173,195	0,385792	22,490000	54,375000
3,375909	1092,393920	173,345	0,384306	22,490000	54,375000
3,372965	1089,776640	173,495	0,383202	22,490000	54,375000
3,369887	1086,021966	173,645	0,381617	22,490000	54,375000
3,366902	1084,289840	173,796	0,380886	22,490000	54,375000
3,363961	1083,332948	173,946	0,380482	22,490000	54,375000
3,360899	1080,142921	174,096	0,379136	22,490000	54,375000
3,357928	1074,100729	174,246	0,376586	22,490000	54,375000
3,354956	1074,186352	174,397	0,376623	22,490000	54,375000
3,351869	1071,544774	174,547	0,375508	22,490000	54,375000
3,348939	1067,963659	174,697	0,373997	22,490000	54,375000
3,345974	1062,311398	174,848	0,371611	22,490000	54,375000
3,342938	1060,337446	174,998	0,370778	22,490000	54,375000
3,339965	1055,932501	175,148	0,368919	22,490000	54,375000
3,336963	1054,771966	175,298	0,368430	22,490000	54,375000
3,333931	1050,618104	175,448	0,366677	22,490000	54,375000
3,330892	1049,191443	175,598	0,366075	22,490000	54,385000
3,327957	1046,981450	175,748	0,365142	22,490000	54,385000
3,324912	1042,520966	175,899	0,363260	22,490000	54,385000
3,321933	1038,170403	176,049	0,361424	22,490000	54,385000
3,318957	1037,904278	176,199	0,361312	22,490000	54,385000
3,315914	1032,080772	176,349	0,358854	22,490000	54,385000
3,312949	1031,312481	176,499	0,358530	22,490000	54,385000
3,309933	1028,984468	176,649	0,357547	22,490000	54,385000
3,306919	1022,745575	176,799	0,354915	22,490000	54,385000
3,303945	1023,019800	176,949	0,355030	22,490000	54,385000
3,300930	1019,517365	177,099	0,353552	22,490000	54,385000
3,297960	1013,795681	177,249	0,351138	22,490000	54,385000
3,294935	1010,871779	177,400	0,349904	22,490000	54,385000
3,291926	1010,753758	177,550	0,349854	22,490000	54,385000
3,288925	1004,772891	177,701	0,347330	22,490000	54,385000
3,285971	1003,040766	177,851	0,346599	22,490000	54,385000
3,282933	1001,277399	178,001	0,345855	22,490000	54,385000
3,279994	995,611254	178,151	0,343464	22,490000	54,385000
3,276942	995,532574	178,303	0,343431	22,490000	54,385000
3,273975	992,695451	178,453	0,342233	22,490000	54,385000
3,270970	987,765199	178,603	0,340153	22,490000	54,385000
3,267912	983,603238	178,753	0,338396	22,490000	54,385000
3,264965	983,383396	178,903	0,338304	22,490000	54,385000
3,262007	980,506933	179,053	0,337090	22,490000	54,385000
3,258902	977,136404	179,203	0,335667	22,490000	54,385000
3,255945	972,653936	179,353	0,333776	22,490000	54,385000
3,252953	968,656278	179,504	0,332089	22,490000	54,385000
3,249966	965,395670	179,654	0,330713	22,490000	54,415000
3,246933	965,285749	179,804	0,330667	22,490000	54,415000
3,243976	960,222434	179,954	0,328530	22,490000	54,415000
3,240958	959,446044	180,105	0,328202	22,490000	54,415000
3,237916	954,641912	180,255	0,326175	22,490000	54,415000
3,234916	949,993983	180,405	0,324213	22,490000	54,415000
3,231981	948,841547	180,555	0,323727	22,490000	54,415000
3,228944	947,140662	180,705	0,323009	22,490000	54,415000
3,225973	940,885571	180,855	0,320370	22,490000	54,415000
3,222931	938,041506	181,005	0,319169	22,490000	54,415000
3,219945	936,519966	181,155	0,318527	22,490000	54,415000
3,216942	932,076838	181,305	0,316652	22,490000	54,415000
3,213935	932,115021	181,455	0,316668	22,490000	54,415000
3,211032	929,285999	181,605	0,315475	22,490000	54,360000
3,207982	924,175244	181,755	0,313318	22,490000	54,360000
3,204986	923,086447	181,905	0,312858	22,490000	54,360000
3,201975	918,179336	182,055	0,310788	22,490000	54,360000
3,198963	914,087955	182,205	0,309061	22,490000	54,360000
3,195998	912,943619	182,355	0,308578	22,490000	54,360000
3,192906	911,157111	182,505	0,307824	22,490000	54,360000
3,189950	906,586706	182,655	0,305896	22,490000	54,360000
3,186949	902,833188	182,806	0,304312	22,490000	54,360000
3,183949	901,508349	182,956	0,303752	22,490000	54,360000
3,180956	898,991734	183,106	0,302690	22,490000	54,360000
3,177961	895,966010	183,257	0,301414	22,490000	54,360000
3,174978	890,902695	183,408	0,299277	22,490000	54,360000
3,171972	889,359171	183,558	0,298625	22,490000	54,360000
3,169032	884,092213	183,708	0,296403	22,480000	54,400000
3,165947	883,927910	183,858	0,296333	22,480000	54,400000
3,162913	878,096305	184,008	0,293873	22,480000	54,400000
3,159956	878,065064	184,159	0,293859	22,480000	54,400000
3,156927	872,366521	184,309	0,291455	22,480000	54,400000
3,153956	871,755591	184,459	0,291197	22,480000	54,400000
3,150924	866,534916	184,610	0,288994	22,480000	54,400000
3,147971	865,766625	184,760	0,288669	22,480000	54,400000
3,144897	860,672069	184,910	0,286520	22,480000	54,400000
3,141906	856,863013	185,060	0,284912	22,480000	54,400000
3,138946	855,475692	185,210	0,284327	22,480000	54,400000
3,135933	853,704227	185,360	0,283579	22,480000	54,400000
3,132966	848,797116	185,510	0,281508	22,480000	54,400000
3,129979	846,642661	185,660	0,280599	22,480000	54,400000
3,126979	844,478951	185,810	0,279686	22,480000	54,400000
3,123907	838,318739	185,960	0,277086	22,480000	54,400000
3,121023	838,358079	186,110	0,277103	22,480000	54,400000
3,117997	832,675735	186,260	0,274705	22,480000	54,400000
3,114968	832,165469	186,411	0,274490	22,480000	54,400000
3,111981	826,757350	186,561	0,272208	22,480000	54,400000
3,108931	826,271383	186,712	0,272002	22,480000	54,400000
3,106000	822,775890	186,862	0,270527	22,480000	54,400000
3,102991	819,758266	187,013	0,269254	22,480000	54,400000
3,100002	814,491308	187,163	0,267031	22,480000	54,400000
3,096991	814,506350	187,314	0,267038	22,480000	54,400000
3,094010	808,659703	187,464	0,264570	22,480000	54,400000
3,091015	808,095055	187,615	0,264332	22,490000	54,360000
3,087983	805,312315	187,765	0,263158	22,490000	54,360000
3,084997	799,191443	187,915	0,260575	22,490000	54,360000
3,081973	796,142578	188,065	0,259288	22,490000	54,360000
3,078917	796,063898	188,215	0,259255	22,490000	54,360000
3,075977	790,404695	188,365	0,256867	22,490000	54,360000
3,073001	789,801864	188,515	0,256612	22,490000	54,360000
3,069923	786,807381	188,665	0,255349	22,490000	54,360000
3,066988	784,251426	188,816	0,254270	22,490000	54,360000
3,064049	779,306132	188,966	0,252183	22,490000	54,360000
3,060963	778,068072	189,116	0,251661	22,490000	54,360000
3,057969	774,016032	189,266	0,249951	22,490000	54,360000
3,055040	772,032824	189,416	0,249114	22,490000	54,360000
3,051983	768,960817	189,566	0,247817	22,490000	54,360000
3,048914	765,699052	189,716	0,246441	22,490000	54,360000
3,045972	762,369020	189,866	0,245036	22,490000	54,360000
3,042955	759,789923	190,017	0,243947	22,490000	54,360000
3,040014	754,506767	190,167	0,241718	22,490000	54,360000
3,040016	753,495492	190,318	0,241291	22,490000	54,360000
3,042998	754,718509	190,351	0,241807	22,490000	54,360000
3,045991	756,967843	190,501	0,242756	22,490000	54,360000
3,049033	760,768800	190,651	0,244360	22,490000	54,360000
3,052025	762,768208	190,801	0,245204	22,490000	54,360000
3,054963	766,311139	190,951	0,246699	22,490000	54,360000
3,057967	771,931002	191,102	0,249071	22,490000	54,360000
3,060968	774,595722	191,254	0,250195	22,490000	54,360000
3,064033	774,994909	191,404	0,250364	22,490000	54,360000
3,066995	778,076172	191,555	0,251664	22,490000	54,360000
3,069931	782,888403	191,705	0,253695	22,490000	54,375000
3,073014	784,095222	191,855	0,254204	22,490000	54,375000
3,075965	790,115429	192,005	0,256745	22,490000	54,375000
3,078965	793,085614	192,155	0,257998	22,490000	54,375000
3,082048	795,201885	192,305	0,258891	22,490000	54,375000
3,084967	799,144004	192,455	0,260555	22,490000	54,375000
3,087953	801,370196	192,605	0,261494	22,490000	54,375000
3,091010	805,399095	192,755	0,263194	22,490000	54,375000
3,094008	807,405445	192,905	0,264041	22,490000	54,375000
3,096938	807,937694	193,055	0,264266	22,490000	54,375000
3,099994	813,174569	193,206	0,266476	22,490000	54,375000
3,102967	814,435769	193,357	0,267008	22,490000	54,375000
3,106035	818,504008	193,508	0,268725	22,490000	54,375000
3,108979	821,984458	193,658	0,270193	22,490000	54,375000
3,111970	823,552281	193,808	0,270855	22,490000	54,375000
3,114939	826,341963	193,958	0,272032	22,490000	54,375000
3,117995	829,422069	194,108	0,273332	22,490000	54,375000
3,120911	835,284916	194,258	0,275806	22,490000	54,375000
3,124012	836,186269	194,409	0,276187	22,490000	54,375000
3,127001	841,336363	194,559	0,278360	22,490000	54,375000
3,129996	844,667552	194,710	0,279766	22,490000	54,375000
3,132991	845,803790	194,861	0,280245	22,490000	54,375000
3,135969	847,614596	195,012	0,281009	22,490000	54,375000
3,138953	851,893420	195,162	0,282815	22,490000	54,375000
3,141960	853,759766	195,313	0,283603	22,490000	54,375000
3,144926	856,635071	195,463	0,284816	22,490000	54,375000
3,147957	862,671477	195,613	0,287363	22,500000	54,390000
3,150924	864,943952	195,764	0,288322	22,500000	54,390000
3,153946	865,147595	195,914	0,288408	22,500000	54,390000
3,156973	870,406454	196,064	0,290627	22,500000	54,390000
3,159937	871,417728	196,214	0,291054	22,500000	54,390000
3,162970	876,316739	196,365	0,293122	22,500000	54,390000
3,166019	877,695960	196,516	0,293704	22,500000	54,390000
3,168965	881,090788	196,666	0,295136	22,500000	54,390000
3,171958	886,843713	196,816	0,297564	22,500000	54,390000
3,175000	887,234801	196,966	0,297729	22,500000	54,390000
3,177938	892,706559	197,117	0,300038	22,500000	54,390000
3,180986	895,793607	197,267	0,301341	22,500000	54,390000
3,183938	898,796190	197,417	0,302608	22,500000	54,390000
3,186960	899,211576	197,567	0,302783	22,500000	54,390000
3,189943	904,831439	197,718	0,305155	22,490000	54,385000
3,193014	905,058223	197,869	0,305250	22,490000	54,385000
3,195960	910,553123	198,019	0,307569	22,490000	54,385000
3,198939	911,039090	198,170	0,307774	22,490000	54,385000
3,201979	917,269883	198,320	0,310404	22,490000	54,385000
3,204946	918,164294	198,471	0,310781	22,490000	54,385000
3,208012	919,998241	198,621	0,311555	22,490000	54,385000
3,210902	926,002249	198,772	0,314089	22,490000	54,385000
3,213938	926,621279	198,922	0,314350	22,490000	54,385000
3,217031	932,264283	199,072	0,316731	22,490000	54,385000
3,219954	933,252416	199,222	0,317148	22,490000	54,385000
3,222986	935,446210	199,373	0,318074	22,490000	54,385000
3,225927	941,285915	199,523	0,320539	22,490000	54,385000
3,228942	941,269716	199,673	0,320532	22,490000	54,385000
3,231982	945,800781	199,823	0,322444	22,490000	54,385000
3,234965	947,564148	199,974	0,323188	22,490000	54,385000
3,237953	951,310723	200,124	0,324769	22,490000	54,385000
3,240942	956,569581	200,275	0,326988	22,490000	54,385000
3,243970	959,203060	200,425	0,328100	22,490000	54,385000
3,246961	962,354904	200,575	0,329430	22,490000	54,385000
3,249988	965,701135	200,726	0,330842	22,490000	54,385000
3,252936	965,301948	200,876	0,330673	22,490000	54,385000
3,255989	968,585697	201,026	0,332059	22,490000	54,385000
3,258981	972,770799	201,176	0,333825	22,490000	54,385000
3,262006	974,511025	201,326	0,334560	22,490000	54,385000
3,264901	980,201468	201,477	0,336961	22,490000	54,385000
3,268028	980,099646	201,627	0,336918	22,490000	54,415000
3,270959	983,509516	201,777	0,338357	22,490000	54,415000
3,273947	986,620862	201,928	0,339670	22,490000	54,415000
3,276932	991,802197	202,078	0,341856	22,490000	54,415000
3,279957	992,875953	202,228	0,342310	22,490000	54,415000
3,282935	997,758766	202,379	0,344370	22,490000	54,415000
3,285937	998,691360	202,529	0,344764	22,490000	54,415000
3,288960	1003,009525	202,679	0,346586	22,490000	54,415000
3,291937	1007,736134	202,830	0,348581	22,490000	54,415000
3,294994	1009,688102	202,980	0,349404	22,490000	54,415000
3,297897	1010,174069	203,130	0,349609	22,490000	54,415000
3,300985	1016,907028	203,280	0,352451	22,490000	54,415000
3,304017	1019,501166	203,431	0,353545	22,490000	54,415000
3,306919	1019,806631	203,581	0,353674	22,480000	54,385000
3,309956	1025,442693	203,731	0,356053	22,480000	54,385000
3,312939	1026,711993	203,882	0,356588	22,480000	54,385000
3,315944	1028,906944	204,032	0,357515	22,480000	54,385000
3,318908	1034,792932	204,182	0,359999	22,480000	54,385000
3,321933	1037,802457	204,334	0,361269	22,480000	54,385000
3,324974	1037,864938	204,484	0,361295	22,480000	54,385000
3,327945	1043,939527	204,634	0,363858	22,480000	54,385000
3,330937	1044,354913	204,784	0,364034	22,480000	54,385000
3,333948	1049,904195	204,934	0,366375	22,480000	54,385000
3,336948	1050,007174	205,084	0,366419	22,480000	54,385000
3,339884	1053,157861	205,234	0,367749	22,480000	54,385000
3,342903	1056,174328	205,384	0,369021	22,480000	54,385000
3,345950	1060,877795	205,534	0,371006	22,480000	54,385000
3,348912	1062,319498	205,684	0,371615	22,490000	54,385000
3,351892	1064,961076	205,835	0,372729	22,490000	54,385000
3,354951	1068,394087	205,985	0,374178	22,490000	54,385000
3,357974	1071,137487	206,135	0,375336	22,490000	54,385000
3,360929	1074,304373	206,286	0,376672	22,490000	54,385000
3,363948	1077,220176	206,436	0,377903	22,490000	54,385000
3,366988	1080,159120	206,586	0,379143	22,490000	54,385000
3,370005	1083,482209	206,737	0,380545	22,490000	54,385000
3,372947	1089,407537	206,887	0,383046	22,490000	54,385000
3,375934	1089,885404	207,037	0,383248	22,490000	54,385000
3,378910	1094,879295	207,188	0,385355	22,490000	54,385000
3,381960	1096,595222	207,339	0,386079	22,490000	54,385000
3,384876	1101,336872	207,490	0,388080	22,490000	54,385000
3,387855	1101,799698	207,641	0,388275	22,490000	54,385000
3,390915	1107,458901	207,791	0,390664	22,490000	54,385000
3,393940	1107,199719	207,942	0,390554	22,490000	54,385000
3,396904	1111,087456	208,092	0,392195	22,490000	54,385000
3,399880	1113,604071	208,242	0,393257	22,490000	54,385000
3,402848	1116,449293	208,393	0,394458	22,490000	54,385000
3,405947	1119,591880	208,543	0,395784	22,490000	54,385000
3,408917	1124,983801	208,693	0,398059	22,490000	54,385000
3,411979	1128,308048	208,843	0,399462	22,490000	54,385000
3,414936	1128,457309	208,994	0,399525	22,490000	54,385000
3,417900	1131,317573	209,145	0,400732	22,490000	54,385000
3,420948	1134,695044	209,295	0,402157	22,490000	54,385000
3,423886	1137,408360	209,446	0,403302	22,490000	54,385000
3,426943	1140,393587	209,596	0,404562	22,490000	54,415000
3,429864	1146,530658	209,746	0,407152	22,490000	54,415000
3,432914	1147,518791	209,896	0,407569	22,490000	54,415000
3,435939	1152,801948	210,047	0,409798	22,490000	54,415000
3,438924	1152,833188	210,197	0,409812	22,490000	54,415000
3,441873	1155,630970	210,348	0,410992	22,490000	54,415000
3,444877	1160,153936	210,498	0,412901	22,490000	54,415000
3,447902	1163,869270	210,648	0,414469	22,490000	54,415000
3,450883	1164,903686	210,799	0,414905	22,490000	54,415000
3,453890	1167,834531	210,949	0,416142	22,490000	54,415000
3,456857	1171,776650	211,100	0,417806	22,490000	54,415000
3,459930	1176,683760	211,250	0,419876	22,490000	54,415000
3,462873	1176,723101	211,400	0,419893	22,490000	54,415000
3,465866	1182,295524	211,550	0,422245	22,490000	54,415000
3,468915	1183,667802	211,700	0,422824	22,490000	54,415000
3,471881	1188,691777	211,851	0,424944	22,490000	54,415000
3,474938	1188,809797	212,001	0,424994	22,490000	54,415000
3,477860	1191,670061	212,151	0,426201	22,490000	54,415000
3,480921	1194,953810	212,301	0,427586	22,490000	54,415000
3,483890	1200,808557	212,451	0,430057	22,490000	54,415000
3,486935	1200,926577	212,601	0,430107	22,490000	54,415000
3,489973	1205,950552	212,752	0,432227	22,490000	54,415000
3,492888	1207,071747	212,903	0,432700	22,490000	54,415000
3,495886	1212,535406	213,053	0,435006	22,490000	54,415000
3,498915	1213,459901	213,203	0,435396	22,490000	54,415000
3,501913	1217,119696	213,353	0,436940	22,490000	54,415000
3,504853	1222,128629	213,503	0,439054	22,490000	54,415000
3,507868	1224,973850	213,653	0,440255	22,490000	54,375000
3,510833	1228,257600	213,804	0,441641	22,490000	54,375000
3,513871	1228,421903	213,954	0,441710	22,490000	54,375000
3,516787	1233,877462	214,104	0,444012	22,490000	54,375000
3,519877	1234,606413	214,254	0,444320	22,490000	54,375000
3,522846	1236,840705	214,404	0,445263	22,490000	54,375000
3,525892	1240,743483	214,554	0,446910	22,490000	54,375000
3,528841	1246,049782	214,704	0,449149	22,490000	54,375000
3,531886	1249,239809	214,854	0,450495	22,490000	54,375000
3,534917	1249,122945	215,004	0,450446	22,490000	54,375000
3,537859	1252,978284	215,155	0,452073	22,490000	54,375000
3,540884	1257,979117	215,305	0,454183	22,490000	54,375000
3,543838	1258,684927	215,455	0,454481	22,490000	54,375000
3,546804	1261,756933	215,605	0,455777	22,480000	54,400000
3,549814	1264,296690	215,755	0,456849	22,480000	54,400000
3,552839	1269,195701	215,906	0,458917	22,480000	54,400000
3,555833	1273,239642	216,057	0,460623	22,480000	54,400000
3,558856	1273,247741	216,207	0,460626	22,480000	54,400000
3,561880	1276,375287	216,358	0,461946	22,480000	54,400000
3,564861	1279,604654	216,509	0,463309	22,480000	54,400000
3,567890	1285,490642	216,660	0,465793	22,480000	54,400000
3,570912	1287,450709	216,810	0,466620	22,480000	54,400000
3,573889	1291,400928	216,960	0,468287	22,480000	54,400000
3,576920	1291,172986	217,110	0,468191	22,480000	54,400000
3,579948	1297,176994	217,260	0,470725	22,480000	54,400000
3,582876	1297,357496	217,411	0,470801	22,480000	54,400000
3,585877	1303,345305	217,561	0,473328	22,480000	54,400000
3,588847	1303,156704	217,711	0,473248	22,490000	54,400000
3,591860	1309,592297	217,862	0,475964	22,490000	54,400000
3,594820	1310,611671	218,012	0,476394	22,490000	54,400000
3,597893	1315,525724	218,163	0,478468	22,490000	54,400000
3,600873	1315,988550	218,313	0,478663	22,490000	54,400000
3,603809	1321,748417	218,463	0,481094	22,490000	54,400000
3,606872	1321,702135	218,613	0,481074	22,490000	54,400000
3,609846	1328,011608	218,764	0,483737	22,490000	54,400000
3,612879	1327,855404	218,914	0,483671	22,490000	54,400000
3,615858	1333,334105	219,064	0,485983	22,490000	54,400000
3,618853	1333,490308	219,215	0,486049	22,490000	54,400000
3,621832	1336,719676	219,365	0,487412	22,490000	54,400000
3,624865	1339,674819	219,516	0,488659	22,490000	54,400000
3,627846	1344,846897	219,667	0,490841	22,490000	54,385000
3,630876	1348,680252	219,817	0,492459	22,490000	54,385000
3,633870	1348,672153	219,967	0,492456	22,490000	54,385000
3,636839	1351,399354	220,118	0,493606	22,490000	54,385000
3,639878	1356,165303	220,268	0,495618	22,490000	54,385000
3,642831	1360,422143	220,418	0,497414	22,490000	54,385000
3,645836	1361,738883	220,568	0,497970	22,490000	54,385000
3,648843	1363,376129	220,718	0,498661	22,490000	54,385000
3,651861	1367,186343	220,868	0,500269	22,490000	54,385000
3,654856	1372,413961	221,018	0,502475	22,490000	54,385000
3,657902	1374,436510	221,168	0,503328	22,490000	54,385000
3,660873	1375,556548	221,318	0,503801	22,490000	54,385000
3,663926	1379,593546	221,468	0,505504	22,490000	54,385000
3,666892	1381,498075	221,618	0,506308	22,480000	54,400000
3,669875	1386,177244	221,768	0,508283	22,480000	54,400000
3,672846	1387,556465	221,918	0,508865	22,480000	54,400000
3,675820	1393,999000	222,068	0,511583	22,480000	54,400000
3,678880	1396,640579	222,218	0,512698	22,480000	54,400000
3,681863	1398,231543	222,368	0,513370	22,480000	54,400000
3,684886	1399,415220	222,518	0,513869	22,480000	54,400000
3,687907	1402,519624	222,668	0,515179	22,480000	54,400000
3,690880	1408,664794	222,818	0,517772	22,480000	54,400000
3,693846	1410,083355	222,968	0,518371	22,480000	54,400000
3,696885	1413,735051	223,119	0,519912	22,480000	54,400000
3,699818	1417,755850	223,269	0,521609	22,480000	54,400000
3,702923	1417,873871	223,420	0,521659	22,480000	54,400000
3,705850	1421,471184	223,570	0,523177	22,480000	54,400000
3,708836	1426,496316	223,720	0,525297	22,500000	54,380000
3,711861	1427,420811	223,870	0,525687	22,500000	54,380000
3,714809	1431,495992	224,020	0,527407	22,500000	54,380000
3,717839	1433,173736	224,170	0,528115	22,500000	54,380000
3,720874	1435,838455	224,320	0,529240	22,500000	54,380000
3,723825	1441,701301	224,470	0,531714	22,500000	54,380000
3,726887	1441,795024	224,620	0,531753	22,500000	54,380000
3,729839	1444,656444	224,771	0,532961	22,500000	54,380000
3,732896	1450,448710	224,921	0,535405	22,500000	54,380000
3,735904	1450,965918	225,072	0,535624	22,500000	54,380000
3,738834	1456,327755	225,222	0,537886	22,500000	54,380000
3,741858	1457,016208	225,372	0,538177	22,500000	54,380000
3,744865	1459,979451	225,522	0,539427	22,500000	54,380000
3,747829	1465,975359	225,673	0,541958	22,490000	54,345000
3,750813	1468,154112	225,823	0,542877	22,490000	54,345000
3,753864	1468,859921	225,973	0,543175	22,490000	54,345000
3,756926	1472,920061	226,124	0,544888	22,490000	54,345000
3,759872	1475,248075	226,274	0,545871	22,490000	54,345000
3,762814	1478,124537	226,424	0,547084	22,490000	54,345000
3,765835	1483,823080	226,574	0,549489	22,490000	54,345000
3,768792	1486,706485	226,724	0,550706	22,490000	54,345000
3,771912	1489,685926	226,874	0,551963	22,490000	54,345000
3,774857	1490,108255	227,024	0,552142	22,490000	54,345000
3,777851	1495,227109	227,174	0,554302	22,490000	54,345000
3,780841	1497,069155	227,324	0,555079	22,490000	54,345000
3,783861	1501,779565	227,474	0,557067	22,490000	54,345000
3,786861	1501,763366	227,625	0,557060	22,490000	54,345000
3,789842	1507,869196	227,775	0,559637	22,490000	54,345000
3,792778	1508,637487	227,925	0,559961	22,490000	54,345000
3,795868	1513,999324	228,075	0,562224	22,490000	54,345000
3,798803	1514,697034	228,225	0,562518	22,490000	54,345000
3,801856	1517,517958	228,376	0,563708	22,490000	54,345000
3,804791	1520,253258	228,526	0,564863	22,490000	54,345000
3,807816	1522,635654	228,676	0,565868	22,490000	54,345000
3,810840	1528,601479	228,826	0,568386	22,490000	54,345000
3,813809	1528,639662	228,977	0,568402	22,490000	54,345000
3,816823	1531,970851	229,127	0,569808	22,490000	54,345000
3,819831	1537,928577	229,278	0,572322	22,490000	54,345000
3,822882	1540,961243	229,428	0,573602	22,490000	54,345000
3,825875	1543,258016	229,578	0,574571	22,490000	54,345000
3,828834	1546,949052	229,728	0,576128	22,490000	54,375000
3,831777	1549,685510	229,878	0,577283	22,490000	54,375000
3,834831	1550,115938	230,028	0,577465	22,490000	54,375000
3,837839	1552,843139	230,178	0,578616	22,490000	54,375000
3,840783	1555,806381	230,328	0,579866	22,490000	54,375000
3,843840	1560,078264	230,478	0,581669	22,490000	54,375000
3,846811	1561,583605	230,628	0,582304	22,490000	54,375000
3,849820	1564,655611	230,779	0,583601	22,490000	54,375000
3,852867	1567,822497	230,930	0,584937	22,490000	54,375000
3,855852	1570,722101	231,080	0,586161	22,490000	54,375000
3,858832	1573,936426	231,230	0,587517	22,490000	54,375000
3,861854	1578,755600	231,380	0,589551	22,490000	54,375000
3,864848	1579,625713	231,530	0,589918	22,490000	54,375000
3,867861	1584,406704	231,680	0,591936	22,490000	54,375000
3,870851	1588,483042	231,831	0,593656	22,490000	54,375000
3,873854	1589,548699	231,981	0,594105	22,490000	54,375000
3,876840	1594,541432	232,131	0,596212	22,490000	54,375000
3,879801	1594,815656	232,281	0,596328	22,490000	54,375000
3,882838	1599,323580	232,431	0,598230	22,490000	54,375000
3,885879	1602,348147	232,581	0,599507	22,490000	54,375000
3,888841	1603,234458	232,731	0,599881	22,490000	54,375000
3,891807	1607,388320	232,881	0,601634	22,490000	54,375000
3,894778	1610,013700	233,031	0,602742	22,490000	54,375000
3,897832	1615,664803	233,181	0,605126	22,490000	54,375000
3,900781	1615,814064	233,331	0,605189	22,490000	54,375000
3,903844	1619,826764	233,481	0,606883	22,490000	54,375000
3,906826	1621,637570	233,631	0,607647	22,490000	54,375000
3,909882	1625,635228	233,781	0,609334	22,490000	54,375000
3,912865	1627,539757	233,931	0,610138	22,490000	54,375000
3,915805	1633,465084	234,081	0,612638	22,490000	54,375000
3,918839	1634,413877	234,231	0,613039	22,490000	54,375000
3,921778	1637,651344	234,381	0,614405	22,490000	54,375000
3,924892	1642,542256	234,532	0,616469	22,490000	54,375000
3,927905	1643,090705	234,682	0,616700	22,490000	54,375000
3,930828	1648,858672	234,832	0,619134	22,490000	54,375000
3,933892	1649,211576	234,982	0,619283	22,490000	54,375000
3,936854	1651,500250	235,132	0,620249	22,490000	54,375000
3,939829	1657,684760	235,283	0,622859	22,490000	54,375000
3,942857	1657,512357	235,433	0,622786	22,490000	54,375000
3,945865	1660,859745	235,583	0,624199	22,490000	54,375000
3,948848	1666,463409	235,733	0,626563	22,490000	54,375000
3,951882	1666,949376	235,883	0,626769	22,490000	54,375000
3,954810	1669,778399	236,033	0,627962	22,490000	54,375000
3,957854	1675,844889	236,184	0,630522	22,490000	54,375000
3,960859	1678,181002	236,334	0,631508	22,490000	54,375000
3,963887	1681,637154	236,484	0,632967	22,490000	54,375000
3,966817	1683,817063	236,634	0,633887	22,490000	54,375000
3,969825	1685,336289	236,784	0,634528	22,490000	54,375000
3,972855	1687,460660	236,934	0,635424	22,490000	54,375000
3,975808	1690,604404	237,084	0,636751	22,490000	54,375000
3,978889	1693,613929	237,234	0,638021	22,490000	54,375000
3,981847	1696,467250	237,385	0,639225	22,490000	54,375000
3,984893	1700,847897	237,535	0,641074	22,490000	54,375000
3,987797	1705,699469	237,685	0,643121	22,480000	54,375000
3,990812	1708,795773	237,835	0,644428	22,480000	54,375000
3,993855	1711,868937	237,986	0,645725	22,480000	54,375000
3,996833	1713,294441	238,136	0,646326	22,480000	54,375000
3,999846	1714,666719	238,286	0,646905	22,480000	54,375000
4,002810	1719,362087	238,436	0,648887	22,480000	54,375000
4,005825	1723,586530	238,586	0,650669	22,480000	54,375000
4,008793	1724,816490	238,737	0,651188	22,480000	54,375000
4,011868	1729,746742	238,887	0,653269	22,480000	54,375000
4,014883	1732,583864	239,037	0,654466	22,480000	54,375000
4,017847	1735,171060	239,187	0,655558	22,480000	54,375000
4,020824	1736,886987	239,337	0,656282	22,480000	54,375000
4,023819	1738,556631	239,487	0,656987	22,480000	54,375000
4,026847	1741,785999	239,637	0,658350	22,480000	54,385000
4,029853	1747,578264	239,787	0,660794	22,480000	54,385000
4,032807	1747,947367	239,938	0,660950	22,480000	54,385000
4,035833	1753,526733	240,089	0,663304	22,480000	54,385000
4,038785	1753,370529	240,240	0,663238	22,480000	54,385000
4,041856	1759,594379	240,390	0,665865	22,480000	54,385000
4,044823	1760,190268	240,540	0,666116	22,480000	54,385000
4,047839	1762,822590	240,690	0,667227	22,480000	54,385000
4,050836	1768,647253	240,840	0,669685	22,480000	54,385000
4,053805	1771,318915	240,990	0,670813	22,480000	54,385000
4,056821	1771,586197	241,140	0,670925	22,480000	54,385000
4,059822	1777,056798	241,290	0,673234	22,480000	54,385000
4,062805	1777,660786	241,440	0,673489	22,480000	54,385000
4,065853	1780,622871	241,591	0,674739	22,500000	54,390000
4,068830	1783,530574	241,741	0,675966	22,500000	54,390000
4,071750	1789,590121	241,892	0,678523	22,500000	54,390000
4,074798	1792,850729	242,042	0,679899	22,500000	54,390000
4,077815	1794,379212	242,192	0,680544	22,500000	54,390000
4,080830	1795,735291	242,343	0,681116	22,500000	54,390000
4,083837	1801,127212	242,493	0,683392	22,500000	54,390000
4,086849	1802,984301	242,643	0,684175	22,500000	54,390000
4,089824	1804,678243	242,794	0,684890	22,500000	54,390000
4,092797	1810,493650	242,944	0,687344	22,500000	54,390000
4,095827	1810,117604	243,094	0,687186	22,500000	54,390000
4,098760	1813,942860	243,244	0,688800	22,500000	54,390000
4,101837	1817,766958	243,395	0,690414	22,500000	54,390000
4,104883	1822,439185	243,546	0,692385	22,500000	54,390000
4,107833	1824,084531	243,696	0,693080	22,500000	54,365000
4,110816	1825,228867	243,846	0,693562	22,500000	54,365000
4,113814	1828,850479	243,996	0,695091	22,500000	54,365000
4,116869	1831,413378	244,146	0,696172	22,500000	54,365000
4,119878	1834,611504	244,296	0,697522	22,500000	54,365000
4,122759	1837,660369	244,447	0,698809	22,500000	54,365000
4,125767	1843,342713	244,597	0,701207	22,500000	54,365000
4,128866	1843,147169	244,747	0,701124	22,500000	54,365000
4,131832	1848,798273	244,897	0,703509	22,500000	54,365000
4,134831	1851,760358	245,048	0,704759	22,500000	54,365000
4,137835	1852,544848	245,199	0,705090	22,500000	54,365000
4,140823	1856,956735	245,350	0,706952	22,500000	54,365000
4,143827	1858,611337	245,501	0,707650	22,500000	54,365000
4,146772	1863,243067	245,651	0,709604	22,490000	54,385000
4,149829	1867,357588	245,801	0,711341	22,490000	54,385000
4,152807	1867,648012	245,951	0,711463	22,490000	54,385000
4,155842	1870,775557	246,101	0,712783	22,490000	54,385000
4,158882	1873,895003	246,251	0,714100	22,490000	54,385000
4,161787	1876,528482	246,401	0,715211	22,490000	54,385000
4,164841	1880,541182	246,551	0,716904	22,490000	54,385000
4,167825	1882,563731	246,701	0,717758	22,490000	54,385000
4,170886	1887,556465	246,851	0,719865	22,490000	54,385000
4,173836	1891,287998	247,001	0,721439	22,490000	54,385000
4,176765	1892,353654	247,151	0,721889	22,490000	54,385000
4,179797	1894,469926	247,302	0,722782	22,490000	54,385000
4,182866	1897,738633	247,452	0,724162	22,490000	54,385000
4,185781	1903,679003	247,602	0,726668	22,490000	54,385000
4,188814	1903,859505	247,753	0,726745	22,490000	54,385000
4,191806	1909,290766	247,903	0,729037	22,490000	54,385000
4,194787	1910,090297	248,053	0,729374	22,490000	54,385000
4,197821	1912,488892	248,203	0,730386	22,490000	54,385000
4,200826	1915,938102	248,353	0,731842	22,490000	54,385000
4,203826	1921,533666	248,503	0,734203	22,490000	54,385000
4,206764	1924,301364	248,653	0,735371	22,490000	54,385000
4,209782	1927,255350	248,804	0,736618	22,490000	54,385000
4,212815	1927,506433	248,954	0,736724	22,490000	54,385000
4,215778	1933,487300	249,104	0,739248	22,490000	54,385000
4,218789	1933,643504	249,254	0,739313	22,490000	54,385000
4,221786	1938,989142	249,404	0,741569	22,490000	54,385000
4,224774	1939,647512	249,554	0,741847	22,490000	54,385000
4,227810	1942,469592	249,705	0,743038	22,490000	54,385000
4,230781	1945,424735	249,855	0,744285	22,490000	54,385000
4,233793	1950,706735	250,006	0,746514	22,490000	54,385000
4,236800	1951,358162	250,156	0,746789	22,490000	54,385000
4,239781	1956,358995	250,308	0,748899	22,490000	54,385000
4,242822	1957,314731	250,458	0,749303	22,490000	54,385000
4,245795	1962,369946	250,608	0,751436	22,490000	54,385000
4,248824	1963,341880	250,758	0,751846	22,490000	54,385000
4,251799	1966,273882	250,908	0,753083	22,490000	54,385000
4,254817	1972,191110	251,059	0,755581	22,490000	54,385000
4,257857	1972,810140	251,209	0,755842	22,490000	54,385000
4,260805	1975,459817	251,360	0,756960	22,490000	54,385000
4,263833	1979,182094	251,511	0,758531	22,490000	54,385000
4,266824	1984,425911	251,661	0,760744	22,490000	54,375000
4,269771	1984,512691	251,811	0,760780	22,490000	54,375000
4,272730	1989,771549	251,962	0,763000	22,490000	54,375000
4,275807	1990,986467	252,112	0,763512	22,490000	54,375000
4,278799	1993,894170	252,262	0,764739	22,490000	54,375000
4,281800	1996,919894	252,412	0,766016	22,490000	54,375000
4,284754	2002,218093	252,562	0,768252	22,490000	54,375000
4,287765	2004,475526	252,712	0,769205	22,490000	54,375000
4,287799	2005,439361	252,862	0,769611	22,490000	54,375000
4,287830	2005,251916	253,012	0,769532	22,490000	54,375000
4,287694	2005,682344	253,163	0,769714	22,490000	54,375000
4,287803	2005,471758	253,313	0,769625	22,490000	54,375000
4,287774	2005,393078	253,464	0,769592	22,490000	54,375000
4,287786	2005,706642	253,614	0,769724	22,490000	54,345000
4,287836	2005,298199	253,765	0,769552	22,490000	54,345000
4,284764	2005,368780	253,916	0,769582	22,490000	54,345000
4,281735	2002,203051	254,066	0,768246	22,490000	54,345000
4,278771	1996,277723	254,216	0,765745	22,490000	54,345000
4,275720	1995,995400	254,366	0,765626	22,490000	54,345000
4,272812	1991,754758	254,516	0,763836	22,490000	54,345000
4,269797	1988,650354	254,666	0,762526	22,490000	54,345000
4,266790	1984,394670	254,816	0,760730	22,490000	54,345000
4,263781	1982,741225	254,967	0,760033	22,490000	54,345000
4,260794	1981,337705	255,118	0,759440	22,490000	54,345000
4,257768	1975,005091	255,269	0,756768	22,490000	54,345000
4,254722	1975,185593	255,420	0,756844	22,490000	54,345000
4,251763	1969,071664	255,570	0,754264	22,490000	54,345000
4,248810	1968,585697	255,720	0,754059	22,490000	54,345000
4,245821	1966,014699	255,871	0,752974	22,490000	54,345000
4,242788	1962,041340	256,021	0,751297	22,490000	54,345000
4,239753	1959,908870	256,171	0,750397	22,490000	54,345000
4,236761	1956,953727	256,321	0,749150	22,490000	54,345000
4,233770	1953,889820	256,471	0,747857	22,490000	54,345000
4,230766	1948,418061	256,621	0,745548	22,490000	54,345000
4,227765	1947,925152	256,772	0,745340	22,490000	54,345000
4,224780	1945,291673	256,922	0,744229	22,490000	54,345000
4,221755	1941,826264	257,073	0,742767	22,490000	54,345000
4,218787	1937,539340	257,223	0,740958	22,490000	54,345000
4,215765	1936,010858	257,373	0,740313	22,490000	54,345000
4,212812	1932,162461	257,523	0,738688	22,490000	54,345000
4,209834	1929,568322	257,673	0,737594	22,490000	54,345000
4,206756	1926,699959	257,823	0,736383	22,490000	54,345000
4,203755	1920,922736	257,974	0,733945	22,490000	54,345000
4,200815	1920,719092	258,125	0,733859	22,490000	54,345000
4,197787	1917,998834	258,275	0,732711	22,490000	54,345000
4,194856	1914,691943	258,425	0,731316	22,490000	54,345000
4,191820	1908,702977	258,575	0,728789	22,490000	54,345000
4,188807	1908,326931	258,725	0,728630	22,490000	54,345000
4,185816	1902,707068	258,875	0,726258	22,490000	54,345000
4,182756	1902,698969	259,026	0,726255	22,490000	54,345000
4,179850	1896,648678	259,177	0,723702	22,490000	54,345000
4,176788	1897,016625	259,327	0,723857	22,490000	54,345000
4,173805	1890,590288	259,477	0,721145	22,490000	54,345000
4,170778	1887,477784	259,628	0,719832	22,490000	54,400000
4,167789	1884,468259	259,778	0,718562	22,490000	54,400000
4,164805	1881,466834	259,928	0,717295	22,490000	54,400000
4,161841	1878,848397	260,078	0,716190	22,490000	54,400000
4,158777	1878,464251	260,228	0,716028	22,490000	54,400000
4,155823	1872,680086	260,378	0,713587	22,490000	54,400000
4,152751	1872,445201	260,528	0,713488	22,490000	54,400000
4,149788	1869,772382	260,678	0,712360	22,490000	54,400000
4,146804	1866,229451	260,828	0,710865	22,490000	54,400000
4,143778	1861,620862	260,978	0,708920	22,490000	54,400000
4,140820	1857,333938	261,128	0,707111	22,490000	54,400000
4,137795	1854,362596	261,278	0,705857	22,490000	54,400000
4,134808	1854,150853	261,428	0,705768	22,490000	54,400000
4,131820	1851,196868	261,579	0,704521	22,490000	54,400000
4,128830	1848,256767	261,729	0,703280	22,500000	54,420000
4,125784	1843,186510	261,880	0,701141	22,500000	54,420000
4,122872	1839,133312	262,030	0,699430	22,500000	54,420000
4,119791	1838,773465	262,180	0,699278	22,500000	54,420000
4,116774	1833,043682	262,330	0,696860	22,500000	54,420000
4,113801	1831,240975	262,480	0,696100	22,500000	54,420000
4,110813	1827,353238	262,631	0,694459	22,500000	54,420000
4,107819	1826,718009	262,781	0,694191	22,500000	54,420000
4,104810	1821,357329	262,931	0,691929	22,500000	54,420000
4,101823	1820,400437	263,081	0,691525	22,500000	54,420000
4,098829	1815,031657	263,232	0,689259	22,500000	54,420000
4,095807	1814,208984	263,383	0,688912	22,500000	54,420000
4,092792	1812,186436	263,534	0,688059	22,500000	54,420000
4,089818	1806,198626	263,684	0,685532	22,490000	54,400000
4,086808	1804,269800	263,835	0,684718	22,490000	54,400000
4,083860	1802,836197	263,985	0,684113	22,490000	54,400000
4,080808	1800,007174	264,135	0,682919	22,490000	54,400000
4,077810	1793,688444	264,285	0,680252	22,490000	54,400000
4,074818	1793,133053	264,435	0,680018	22,490000	54,400000
4,071816	1790,687019	264,585	0,678986	22,490000	54,400000
4,068803	1785,710484	264,736	0,676886	22,490000	54,400000
4,065803	1781,704726	264,886	0,675195	22,490000	54,400000
4,062823	1778,921986	265,036	0,674021	22,490000	54,400000
4,059798	1778,537841	265,186	0,673859	22,490000	54,400000
4,056833	1774,470759	265,336	0,672143	22,490000	54,400000
4,053795	1772,503749	265,486	0,671312	22,490000	54,400000
4,050837	1767,416136	265,636	0,669166	22,490000	54,375000
4,047801	1766,670986	265,786	0,668851	22,490000	54,375000
4,044856	1761,264024	265,936	0,666569	22,490000	54,375000
4,041820	1757,767374	266,087	0,665094	22,490000	54,375000
4,038804	1755,534240	266,237	0,664151	22,490000	54,375000
4,035786	1751,474100	266,387	0,662438	22,490000	54,375000
4,032818	1751,246159	266,537	0,662342	22,490000	54,375000
4,029823	1748,730700	266,687	0,661280	22,490000	54,375000
4,026805	1743,894170	266,838	0,659239	22,490000	54,375000
4,023791	1742,585530	266,988	0,658687	22,490000	54,375000
4,020806	1736,573423	267,138	0,656150	22,490000	54,375000
4,017840	1736,675244	267,288	0,656193	22,490000	54,375000
4,014825	1733,696960	267,438	0,654936	22,490000	54,375000
4,011862	1730,624954	267,588	0,653640	22,490000	54,375000
4,008837	1725,843963	267,738	0,651622	22,490000	54,375000
4,005827	1723,594629	267,888	0,650673	22,490000	54,375000
4,002880	1721,478358	268,038	0,649780	22,490000	54,375000
3,999782	1715,293848	268,189	0,647170	22,490000	54,375000
3,996847	1715,113346	268,339	0,647094	22,490000	54,375000
3,993857	1709,312981	268,489	0,644646	22,490000	54,375000
3,990860	1708,191786	268,639	0,644173	22,490000	54,375000
3,987800	1703,591297	268,789	0,642231	22,490000	54,375000
3,984826	1701,185760	268,939	0,641216	22,490000	54,375000
3,981827	1697,391745	269,089	0,639615	22,490000	54,375000
3,978846	1697,281824	269,239	0,639569	22,490000	54,375000
3,975811	1694,131137	269,390	0,638239	22,490000	54,375000
3,972852	1688,079689	269,540	0,635686	22,490000	54,375000
3,969825	1685,117604	269,690	0,634436	22,500000	54,390000
3,966847	1684,436093	269,840	0,634148	22,500000	54,390000
3,963829	1679,364679	269,990	0,632008	22,500000	54,390000
3,960819	1679,136737	270,140	0,631912	22,500000	54,390000
3,957823	1675,931668	270,290	0,630559	22,500000	54,390000
3,954870	1672,945285	270,440	0,629299	22,500000	54,390000
3,951790	1667,356663	270,590	0,626940	22,500000	54,390000
3,948816	1666,533990	270,740	0,626593	22,500000	54,390000
3,945864	1661,784240	270,890	0,624589	22,500000	54,390000
3,942888	1657,990225	271,040	0,622988	22,500000	54,390000
3,939856	1655,764033	271,190	0,622048	22,500000	54,390000
3,936781	1654,808298	271,341	0,621645	22,500000	54,390000
3,933860	1649,344639	271,491	0,619339	22,500000	54,390000
3,930874	1645,998408	271,641	0,617927	22,480000	54,360000
3,927853	1643,200626	271,791	0,616747	22,480000	54,360000
3,924821	1642,957642	271,941	0,616644	22,480000	54,360000
3,921831	1636,482709	272,091	0,613912	22,480000	54,360000
3,918835	1633,661785	272,242	0,612721	22,480000	54,360000
3,915836	1631,223850	272,393	0,611692	22,480000	54,360000
3,912839	1627,735301	272,543	0,610220	22,480000	54,360000
3,909823	1626,787665	272,693	0,609820	22,480000	54,360000
3,906833	1621,457068	272,843	0,607571	22,480000	54,360000
3,903944	1621,245325	272,993	0,607481	22,480000	54,360000
3,900771	1617,358746	273,143	0,605841	22,480000	54,360000
3,897868	1612,553456	273,294	0,603813	22,480000	54,360000
3,894849	1609,598313	273,445	0,602566	22,480000	54,360000
3,891814	1607,419561	273,595	0,601647	22,490000	54,400000
3,888864	1606,283323	273,745	0,601167	22,490000	54,400000
3,885839	1602,090121	273,895	0,599398	22,490000	54,400000
3,882876	1597,583355	274,045	0,597496	22,490000	54,400000
3,879838	1596,376537	274,195	0,596987	22,490000	54,400000
3,876818	1591,579347	274,345	0,594962	22,490000	54,400000
3,873847	1588,420561	274,495	0,593629	22,490000	54,400000
3,870809	1588,404362	274,645	0,593623	22,490000	54,400000
3,867850	1584,399761	274,795	0,591933	22,490000	54,400000
3,864901	1582,722018	274,945	0,591225	22,490000	54,400000
3,861828	1579,422069	275,095	0,589832	22,490000	54,400000
3,858832	1576,341963	275,245	0,588532	22,490000	54,400000
3,855857	1570,597138	275,396	0,586108	22,490000	54,400000
3,852807	1567,351572	275,546	0,584738	22,490000	54,400000
3,849897	1564,225183	275,696	0,583419	22,490000	54,375000
3,846891	1561,661128	275,847	0,582337	22,490000	54,375000
3,843791	1558,620362	275,998	0,581054	22,490000	54,375000
3,840888	1557,068739	276,148	0,580399	22,490000	54,375000
3,837822	1555,062389	276,298	0,579552	22,490000	54,375000
3,834837	1552,483292	276,448	0,578464	22,490000	54,375000
3,831807	1548,610597	276,598	0,576830	22,490000	54,375000
3,828818	1546,290682	276,748	0,575851	22,490000	54,375000
3,825879	1540,153612	276,898	0,573261	22,490000	54,375000
3,822854	1539,064814	277,049	0,572801	22,490000	54,375000
3,819828	1536,431335	277,199	0,571690	22,490000	54,375000
3,816857	1531,759108	277,350	0,569718	22,490000	54,375000
3,813857	1531,046357	277,500	0,569417	22,490000	54,375000
3,810791	1526,030482	277,650	0,567301	22,490000	54,375000
3,807901	1524,932427	277,800	0,566837	22,490000	54,375000
3,804859	1520,065814	277,950	0,564784	22,490000	54,375000
3,801870	1518,929576	278,100	0,564304	22,490000	54,375000
3,798882	1514,006267	278,250	0,562227	22,490000	54,375000
3,795893	1512,861930	278,400	0,561744	22,490000	54,375000
3,792872	1509,617521	278,550	0,560375	22,490000	54,375000
3,789849	1506,834780	278,701	0,559200	22,490000	54,375000
3,786860	1502,845222	278,851	0,557517	22,490000	54,375000
3,783862	1497,750666	279,002	0,555367	22,490000	54,375000
3,780810	1497,420903	279,152	0,555228	22,490000	54,375000
3,777875	1491,738559	279,302	0,552830	22,490000	54,375000
3,774859	1491,597397	279,453	0,552770	22,490000	54,375000
3,771853	1486,008775	279,603	0,550412	22,500000	54,390000
3,768863	1485,719509	279,753	0,550290	22,500000	54,390000
3,765811	1482,882387	279,904	0,549092	22,500000	54,390000
3,762894	1476,768457	280,054	0,546512	22,500000	54,390000
3,759821	1476,784656	280,205	0,546519	22,500000	54,390000
3,756871	1473,688352	280,356	0,545212	22,500000	54,390000
3,753881	1467,433261	280,506	0,542573	22,500000	54,390000
3,750823	1464,635478	280,656	0,541392	22,500000	54,390000
3,747878	1462,268124	280,806	0,540393	22,500000	54,390000
3,744857	1461,664137	280,956	0,540138	22,500000	54,390000
3,741826	1457,738216	281,107	0,538481	22,500000	54,390000
3,738872	1455,590705	281,257	0,537575	22,500000	54,390000
3,735879	1452,305798	281,408	0,536189	22,500000	54,390000
3,732836	1449,281231	281,558	0,534913	22,500000	54,390000
3,729881	1443,410286	281,709	0,532435	22,490000	54,360000
3,726824	1443,425328	281,860	0,532441	22,490000	54,360000
3,723838	1439,882396	282,010	0,530946	22,490000	54,360000
3,720837	1434,474276	282,160	0,528664	22,490000	54,360000
3,717887	1434,106330	282,310	0,528509	22,490000	54,360000
3,714893	1428,282824	282,460	0,526051	22,490000	54,360000
3,711859	1427,209068	282,610	0,525598	22,490000	54,360000
3,708881	1422,428077	282,760	0,523581	22,490000	54,360000
3,705935	1419,206809	282,910	0,522221	22,490000	54,360000
3,702801	1416,102405	283,060	0,520911	22,490000	54,360000
3,699821	1416,259766	283,210	0,520978	22,490000	54,360000
3,696844	1410,388820	283,360	0,518500	22,490000	54,360000
3,693847	1409,950293	283,510	0,518315	22,490000	54,360000
3,690892	1407,496159	283,660	0,517279	22,490000	54,385000
3,687858	1403,608422	283,810	0,515639	22,490000	54,385000
3,684845	1398,247741	283,960	0,513376	22,490000	54,385000
3,681879	1395,331939	284,110	0,512146	22,490000	54,385000
3,678894	1394,893411	284,260	0,511961	22,490000	54,385000
3,675898	1391,664044	284,410	0,510598	22,490000	54,385000
3,672842	1386,255924	284,562	0,508316	22,490000	54,385000
3,669827	1383,724267	284,712	0,507248	22,490000	54,385000
3,666856	1383,292682	284,862	0,507065	22,490000	54,385000
3,663846	1380,000833	285,012	0,505676	22,490000	54,385000
3,660871	1377,061889	285,162	0,504436	22,490000	54,385000
3,657893	1371,136561	285,312	0,501936	22,490000	54,385000
3,654876	1368,314481	285,463	0,500745	22,490000	54,385000
3,651834	1368,102738	285,614	0,500655	22,490000	54,400000
3,648873	1365,022632	285,764	0,499355	22,490000	54,400000
3,645820	1358,908703	285,915	0,496775	22,490000	54,400000
3,642833	1357,685686	286,065	0,496259	22,490000	54,400000
3,639863	1355,859838	286,215	0,495489	22,490000	54,400000
3,636891	1352,865355	286,365	0,494225	22,490000	54,400000
3,633903	1346,963168	286,515	0,491734	22,490000	54,400000
3,630865	1345,097980	286,665	0,490947	22,490000	54,400000
3,627831	1341,139662	286,815	0,489277	22,490000	54,400000
3,624890	1339,415636	286,965	0,488549	22,490000	54,400000
3,621855	1337,847814	287,116	0,487888	22,490000	54,400000
3,618950	1334,767708	287,266	0,486588	22,490000	54,400000
3,615825	1328,811139	287,416	0,484074	22,490000	54,400000
3,612849	1328,065990	287,566	0,483760	22,490000	54,400000
3,609925	1325,361930	287,717	0,482619	22,490000	54,400000
3,606855	1319,640245	287,868	0,480204	22,490000	54,400000
3,603805	1316,755684	288,018	0,478987	22,490000	54,400000
3,600937	1316,027890	288,168	0,478680	22,490000	54,400000
3,597882	1310,877795	288,318	0,476506	22,490000	54,400000
3,594895	1310,156944	288,468	0,476202	22,490000	54,400000
3,591909	1304,693285	288,619	0,473896	22,490000	54,400000
3,588808	1304,450302	288,769	0,473794	22,490000	54,400000
3,585884	1298,751759	288,919	0,471389	22,490000	54,400000
3,582912	1296,534823	289,070	0,470454	22,490000	54,400000
3,579912	1294,261191	289,220	0,469494	22,490000	54,400000
3,576864	1292,670227	289,370	0,468823	22,490000	54,400000
3,573914	1288,171560	289,521	0,466924	22,490000	54,400000
3,570890	1283,609255	289,671	0,464999	22,500000	54,420000
3,567893	1283,507433	289,821	0,464956	22,500000	54,420000
3,564880	1280,504850	289,971	0,463689	22,500000	54,420000
3,561888	1277,496483	290,121	0,462419	22,500000	54,420000
3,558864	1271,021549	290,271	0,459687	22,500000	54,420000
3,555867	1269,837872	290,421	0,459188	22,500000	54,420000
3,552854	1268,481792	290,571	0,458615	22,500000	54,420000
3,549921	1264,336030	290,721	0,456866	22,500000	54,420000
3,546883	1259,813065	290,871	0,454957	22,500000	54,420000
3,543881	1257,657453	291,022	0,454047	22,500000	54,420000
3,540853	1256,583697	291,172	0,453594	22,500000	54,420000
3,537882	1252,766541	291,322	0,451983	22,500000	54,420000
3,534885	1247,609505	291,472	0,449807	22,500000	54,420000
3,531906	1245,728118	291,622	0,449013	22,500000	54,420000
3,528904	1244,340797	291,772	0,448428	22,500000	54,420000
3,525877	1239,827088	291,922	0,446523	22,500000	54,420000
3,522895	1238,329847	292,072	0,445891	22,500000	54,420000
3,519841	1234,449052	292,222	0,444253	22,500000	54,420000
3,516883	1229,480617	292,373	0,442157	22,500000	54,420000
3,513905	1228,876629	292,523	0,441902	22,500000	54,420000
3,510871	1226,392412	292,673	0,440854	22,500000	54,420000
3,507899	1223,084364	292,824	0,439458	22,500000	54,420000
3,504903	1217,229617	292,974	0,436987	22,500000	54,420000
3,501859	1217,559381	293,124	0,437126	22,500000	54,420000
3,498901	1214,125213	293,274	0,435677	22,500000	54,420000
3,495886	1210,747741	293,424	0,434251	22,500000	54,420000
3,492915	1205,277140	293,574	0,431943	22,500000	54,420000
3,489919	1205,001759	293,724	0,431827	22,480000	54,400000
3,486880	1199,288174	293,875	0,429416	22,480000	54,400000
3,483910	1199,053290	294,026	0,429316	22,480000	54,400000
3,480866	1194,154278	294,177	0,427249	22,480000	54,400000
3,477867	1192,978701	294,328	0,426753	22,480000	54,400000
3,474934	1189,780574	294,478	0,425403	22,480000	54,400000
3,471934	1187,186436	294,629	0,424309	22,480000	54,400000
3,468944	1182,413544	294,779	0,422294	22,480000	54,400000
3,465959	1178,118520	294,930	0,420482	22,480000	54,400000
3,462902	1177,059806	295,081	0,420035	22,480000	54,400000
3,459906	1175,069655	295,231	0,419195	22,480000	54,400000
3,456921	1171,314981	295,381	0,417611	22,480000	54,400000
3,453954	1168,759025	295,532	0,416532	22,480000	54,400000
3,450880	1166,141745	295,683	0,415428	22,490000	54,385000
3,447906	1163,045440	295,833	0,414121	22,490000	54,385000
3,444941	1157,057631	295,983	0,411594	22,490000	54,385000
3,441914	1154,118687	296,134	0,410354	22,490000	54,385000
3,438828	1152,935010	296,285	0,409854	22,490000	54,385000
3,435898	1151,108005	296,435	0,409083	22,490000	54,385000
3,432928	1148,004758	296,585	0,407774	22,490000	54,385000
3,429893	1143,184427	296,736	0,405740	22,490000	54,385000
3,426907	1141,867687	296,886	0,405184	22,490000	54,385000
3,423990	1136,638913	297,036	0,402978	22,490000	54,385000
3,420958	1135,886821	297,186	0,402660	22,490000	54,385000
3,417866	1130,549282	297,337	0,400408	22,490000	54,385000
3,414894	1129,875870	297,487	0,400124	22,490000	54,385000
3,411906	1126,818906	297,637	0,398833	22,490000	54,345000
3,408943	1120,508275	297,787	0,396170	22,490000	54,345000
3,405877	1119,851063	297,938	0,395893	22,490000	54,345000
3,402909	1117,413128	298,089	0,394864	22,490000	54,345000
3,399926	1113,682751	298,239	0,393290	22,490000	54,345000
3,396931	1111,534082	298,390	0,392383	22,490000	54,345000
3,393891	1106,918552	298,540	0,390436	22,490000	54,345000
3,390940	1105,600655	298,690	0,389879	22,490000	54,345000
3,387943	1102,364346	298,840	0,388514	22,490000	54,345000
3,384915	1099,855830	298,990	0,387455	22,490000	54,345000
3,381952	1096,258516	299,140	0,385937	22,490000	54,345000
3,378935	1093,774298	299,290	0,384889	22,490000	54,345000
3,375924	1090,387570	299,440	0,383459	22,490000	54,345000
3,372950	1085,637820	299,590	0,381455	22,490000	54,345000
3,369939	1081,538340	299,740	0,379725	22,490000	54,375000
3,366986	1078,850479	299,890	0,378591	22,490000	54,375000
3,363915	1078,709318	300,041	0,378531	22,490000	54,375000
3,360917	1074,273132	300,192	0,376659	22,490000	54,375000
3,357882	1069,727025	300,342	0,374741	22,490000	54,375000
3,354928	1069,593963	300,493	0,374685	22,490000	54,375000
3,351947	1066,427077	300,643	0,373348	22,490000	54,375000
3,348947	1063,307631	300,793	0,372032	22,490000	54,375000
3,345921	1060,493650	300,943	0,370844	22,490000	54,375000
3,342884	1054,921227	301,093	0,368493	22,490000	54,375000
3,339941	1054,505841	301,243	0,368317	22,490000	54,375000
3,336978	1049,112763	301,393	0,366042	22,490000	54,375000
3,333917	1048,658037	301,543	0,365850	22,490000	54,375000
3,330945	1045,280565	301,693	0,364424	22,490000	54,375000
3,327898	1042,545264	301,844	0,363270	22,490000	54,375000
3,324914	1037,144087	301,994	0,360991	22,490000	54,375000
3,321909	1036,477618	302,145	0,360709	22,490000	54,375000
3,318986	1032,182594	302,295	0,358897	22,490000	54,375000
3,315986	1030,442369	302,445	0,358163	22,490000	54,375000
3,312918	1026,170487	302,595	0,356360	22,490000	54,375000
3,309913	1024,611921	302,745	0,355702	22,490000	54,375000
3,306907	1020,238216	302,895	0,353856	22,490000	54,375000
3,303940	1015,339205	303,046	0,351789	22,490000	54,375000
3,300988	1014,703977	303,196	0,351521	22,490000	54,375000
3,297938	1012,016116	303,347	0,350387	22,490000	54,375000
3,294915	1009,327098	303,497	0,349252	22,490000	54,375000
3,291935	1003,386728	303,648	0,346745	22,500000	54,380000
3,288905	1002,978284	303,799	0,346573	22,500000	54,380000
3,285934	998,016791	303,949	0,344479	22,500000	54,380000
3,282962	997,335280	304,099	0,344191	22,500000	54,380000
3,279935	994,301457	304,250	0,342911	22,500000	54,380000
3,276962	987,960743	304,400	0,340235	22,500000	54,380000
3,273911	988,297449	304,550	0,340377	22,500000	54,380000
3,270924	985,131720	304,700	0,339042	22,500000	54,380000
3,267918	982,097897	304,850	0,337761	22,500000	54,380000
3,264959	976,164470	305,000	0,335257	22,500000	54,380000
3,261939	974,033157	305,150	0,334358	22,500000	54,380000
3,258952	973,013783	305,300	0,333928	22,500000	54,380000
3,255930	968,091630	305,450	0,331851	22,500000	54,380000
3,252976	963,835947	305,600	0,330055	22,480000	54,400000
3,249951	961,821497	305,750	0,329205	22,480000	54,400000
3,246986	957,651437	305,901	0,327445	22,480000	54,400000
3,243929	954,876796	306,052	0,326274	22,480000	54,400000
3,240984	954,837456	306,203	0,326257	22,480000	54,400000
3,237965	952,118354	306,354	0,325110	22,480000	54,400000
3,234905	945,823923	306,504	0,322454	22,480000	54,400000
3,231987	945,956985	306,654	0,322510	22,480000	54,400000
3,228937	939,796773	306,804	0,319910	22,480000	54,400000
3,225935	939,788674	306,954	0,319907	22,480000	54,400000
3,222998	936,544265	307,104	0,318538	22,480000	54,400000
3,219998	933,643504	307,254	0,317313	22,480000	54,400000
3,216939	930,876962	307,404	0,316146	22,480000	54,400000
3,213983	927,545773	307,555	0,314740	22,480000	54,400000
3,210948	921,714168	307,705	0,312279	22,490000	54,345000
3,207992	921,361263	307,856	0,312130	22,490000	54,345000
3,204954	918,743983	308,006	0,311026	22,490000	54,345000
3,201928	912,748075	308,157	0,308496	22,490000	54,345000
3,198981	910,631804	308,307	0,307603	22,490000	54,345000
3,195908	909,863513	308,458	0,307278	22,490000	54,345000
3,192962	904,306132	308,608	0,304933	22,490000	54,345000
3,189948	903,624620	308,759	0,304646	22,490000	54,345000
3,186976	897,541932	308,909	0,302079	22,490000	54,345000
3,183987	897,550031	309,059	0,302082	22,490000	54,345000
3,180928	893,419311	309,209	0,300339	22,490000	54,345000
3,177960	888,270374	309,359	0,298166	22,490000	54,345000
3,174912	887,909369	309,510	0,298014	22,490000	54,345000
3,171938	882,579930	309,660	0,295765	22,500000	54,390000
3,168961	881,082688	309,810	0,295133	22,500000	54,390000
3,165979	879,342463	309,960	0,294398	22,500000	54,390000
3,162953	876,505341	310,111	0,293201	22,500000	54,390000
3,159951	873,072330	310,262	0,291752	22,500000	54,390000
3,157038	870,289590	310,412	0,290578	22,500000	54,390000
3,153909	865,398678	310,562	0,288514	22,500000	54,390000
3,150914	863,587872	310,712	0,287750	22,500000	54,390000
3,147931	861,244816	310,862	0,286761	22,500000	54,390000
3,144941	858,007350	311,012	0,285395	22,500000	54,390000
3,142005	852,449969	311,162	0,283050	22,500000	54,390000
3,138971	852,262524	311,312	0,282971	22,500000	54,390000
3,135971	846,227275	311,463	0,280424	22,500000	54,390000
3,133022	843,382053	311,614	0,279223	22,500000	54,390000
3,129974	843,295274	311,764	0,279187	22,500000	54,390000
3,127013	840,403769	311,914	0,277966	22,500000	54,390000
3,123985	835,903945	312,065	0,276067	22,500000	54,390000
3,120935	834,022558	312,215	0,275273	22,500000	54,390000
3,118003	831,240975	312,365	0,274100	22,500000	54,390000
3,114964	825,010182	312,515	0,271470	22,500000	54,390000
3,111952	824,641079	312,666	0,271314	22,500000	54,390000
3,109015	819,303540	312,816	0,269062	22,500000	54,390000
3,105989	818,018041	312,966	0,268520	22,500000	54,390000
3,102974	813,417552	313,116	0,266578	22,500000	54,390000
3,100030	812,225776	313,266	0,266075	22,500000	54,390000
3,097017	807,233042	313,416	0,263968	22,500000	54,390000
3,093965	805,540257	313,566	0,263254	22,500000	54,390000
3,090933	800,861087	313,716	0,261279	22,480000	54,375000
3,088009	801,056631	313,867	0,261362	22,480000	54,375000
3,084959	795,318748	314,017	0,258940	22,480000	54,375000
3,081987	794,848980	314,167	0,258742	22,480000	54,375000
3,078943	791,015625	314,317	0,257125	22,480000	54,375000
3,075947	788,523308	314,467	0,256073	22,480000	54,375000
3,072947	783,100146	314,618	0,253784	22,480000	54,375000
3,070014	780,199385	314,768	0,252560	22,480000	54,375000
3,066979	776,907537	314,918	0,251171	22,480000	54,375000
3,063993	776,971175	315,069	0,251198	22,480000	54,375000
3,060935	771,256433	315,219	0,248786	22,480000	54,375000
3,057996	770,959068	315,369	0,248661	22,480000	54,375000
3,054972	767,110671	315,519	0,247037	22,480000	54,375000
3,051925	764,946960	315,669	0,246124	22,480000	54,375000
3,049009	758,982292	315,820	0,243606	22,480000	54,375000
3,046029	758,591204	315,970	0,243441	22,480000	54,375000
3,043002	755,964668	316,120	0,242333	22,480000	54,375000
3,039970	752,602238	316,271	0,240914	22,480000	54,375000
3,037041	747,405861	316,422	0,238721	22,480000	54,375000
3,034009	746,919894	316,572	0,238516	22,480000	54,375000
3,031008	743,659286	316,722	0,237140	22,480000	54,375000
3,027964	737,545357	316,872	0,234560	22,480000	54,375000
3,024942	736,284157	317,022	0,234028	22,480000	54,375000
3,021993	734,637654	317,172	0,233333	22,480000	54,375000
3,018967	728,641745	317,322	0,230803	22,480000	54,375000
3,016003	728,625546	317,472	0,230796	22,480000	54,375000
3,012999	723,202384	317,622	0,228507	22,480000	54,385000
3,010001	722,081189	317,772	0,228034	22,480000	54,385000
3,006952	718,428336	317,922	0,226493	22,480000	54,385000
3,003980	716,523808	318,073	0,225689	22,480000	54,385000
3,000981	711,273049	318,223	0,223473	22,480000	54,385000
2,997999	710,841464	318,373	0,223291	22,480000	54,385000
2,994977	705,613846	318,523	0,221085	22,480000	54,385000
2,992020	704,641912	318,673	0,220675	22,480000	54,385000
2,989010	699,312472	318,823	0,218426	22,480000	54,385000
2,985965	698,442360	318,973	0,218059	22,480000	54,385000
2,982958	695,667719	319,123	0,216888	22,480000	54,385000
2,979976	692,280991	319,273	0,215458	22,480000	54,385000
2,976971	689,443868	319,424	0,214261	22,480000	54,385000
2,974063	683,651603	319,574	0,211817	22,480000	54,385000
2,970950	683,518541	319,724	0,211761	22,480000	54,385000
2,967969	680,712659	319,874	0,210577	22,480000	54,385000
2,965022	676,699959	320,024	0,208883	22,480000	54,385000
2,962041	674,544348	320,174	0,207974	22,480000	54,385000
2,959043	671,456143	320,324	0,206670	22,480000	54,385000
2,956021	668,367937	320,474	0,205367	22,480000	54,385000
2,952934	664,746325	320,624	0,203839	22,480000	54,385000
2,950031	659,323164	320,774	0,201550	22,480000	54,385000
2,946997	656,414303	320,924	0,200323	22,480000	54,385000
2,944013	653,483459	321,075	0,199086	22,480000	54,385000
2,941035	653,562139	321,225	0,199119	22,480000	54,385000
2,938039	649,477701	321,375	0,197396	22,480000	54,385000
2,935023	647,032824	321,526	0,196364	22,480000	54,385000
2,931986	644,478025	321,676	0,195286	22,490000	54,360000
2,929004	641,138737	321,826	0,193876	22,490000	54,360000
2,925972	635,361513	321,978	0,191438	22,490000	54,360000
2,923020	635,267791	322,128	0,191399	22,490000	54,360000
2,919968	632,422569	322,278	0,190198	22,490000	54,360000
2,916989	629,569248	322,428	0,188994	22,490000	54,360000
2,913909	624,466593	322,578	0,186841	22,490000	54,360000
2,910971	623,151011	322,728	0,186286	22,490000	54,360000
2,907985	618,494983	322,879	0,184321	22,490000	54,360000
2,904997	617,311306	323,029	0,183821	22,490000	54,360000
2,902031	610,946294	323,180	0,181135	22,490000	54,360000
2,899005	608,219092	323,330	0,179984	22,490000	54,360000
2,895994	606,432585	323,480	0,179230	22,490000	54,360000
2,893019	602,379388	323,630	0,177520	22,490000	54,400000
2,890000	601,854080	323,780	0,177298	22,490000	54,400000
2,886926	599,276140	323,930	0,176210	22,490000	54,400000
2,883994	594,925578	324,080	0,174375	22,490000	54,400000
2,880957	593,382053	324,231	0,173723	22,490000	54,400000
2,878061	590,246408	324,381	0,172400	22,490000	54,400000
2,874992	584,148678	324,531	0,169827	22,490000	54,400000
2,871977	583,262367	324,681	0,169453	22,490000	54,400000
2,868970	581,107912	324,831	0,168543	22,490000	54,400000
2,866027	578,520716	324,981	0,167452	22,490000	54,400000
2,863037	575,197627	325,131	0,166049	22,490000	54,400000
2,860039	571,654695	325,282	0,164554	22,490000	54,400000
2,856998	569,013116	325,432	0,163439	22,490000	54,400000
2,854012	566,034832	325,582	0,162183	22,490000	54,400000
2,850983	559,984542	325,732	0,159629	22,490000	54,400000
2,847995	559,137570	325,882	0,159272	22,490000	54,400000
2,845022	554,051114	326,032	0,157125	22,490000	54,400000
2,841950	554,034916	326,182	0,157119	22,490000	54,400000
2,838997	547,874704	326,332	0,154519	22,490000	54,400000
2,835915	547,247575	326,482	0,154254	22,490000	54,400000
2,833028	542,277982	326,632	0,152157	22,490000	54,400000
2,829994	541,424069	326,783	0,151797	22,490000	54,400000
2,827027	535,937269	326,934	0,149481	22,490000	54,400000
2,823993	535,764866	327,084	0,149409	22,490000	54,400000
2,820963	532,629221	327,235	0,148085	22,490000	54,400000
2,818026	529,588455	327,385	0,146802	22,490000	54,400000
2,815039	527,017458	327,535	0,145717	22,490000	54,400000
2,811983	524,047273	327,686	0,144464	22,480000	54,360000
2,808995	521,084031	327,836	0,143213	22,480000	54,360000
2,806030	514,931918	327,986	0,140617	22,480000	54,360000
2,803023	511,906194	328,136	0,139340	22,480000	54,360000
2,800001	511,889996	328,286	0,139333	22,480000	54,360000
2,797023	506,756100	328,436	0,137167	22,480000	54,360000
2,793994	505,902186	328,586	0,136807	22,480000	54,360000
2,791018	501,387320	328,736	0,134901	22,480000	54,360000
2,788049	496,739392	328,886	0,132940	22,480000	54,360000
2,784968	495,406454	329,036	0,132377	22,480000	54,360000
2,781995	491,166969	329,186	0,130588	22,480000	54,360000
2,779080	488,972018	329,336	0,129662	22,480000	54,360000
2,776017	487,678419	329,486	0,129116	22,480000	54,360000
2,772985	484,409712	329,637	0,127737	22,500000	54,365000
2,769990	481,933594	329,788	0,126692	22,500000	54,365000
2,767022	477,944035	329,938	0,125008	22,500000	54,365000
2,764072	472,849480	330,088	0,122858	22,500000	54,365000
2,761102	472,081189	330,238	0,122534	22,500000	54,365000
2,758004	466,978534	330,388	0,120381	22,500000	54,365000
2,755031	463,921570	330,538	0,119091	22,500000	54,365000
2,752022	463,655445	330,689	0,118979	22,500000	54,365000
2,749031	460,762783	330,839	0,117758	22,500000	54,365000
2,746052	457,840038	330,989	0,116524	22,500000	54,365000
2,743029	454,265866	331,139	0,115016	22,500000	54,365000
2,740029	449,240734	331,290	0,112896	22,500000	54,365000
2,737035	445,878305	331,440	0,111477	22,500000	54,365000
2,734008	442,798199	331,590	0,110177	22,500000	54,365000
2,731001	439,836113	331,741	0,108927	22,490000	54,375000
2,727969	437,084614	331,891	0,107766	22,490000	54,375000
2,725018	436,685427	332,041	0,107597	22,490000	54,375000
2,722047	431,331689	332,192	0,105338	22,490000	54,375000
2,719006	431,049365	332,342	0,105219	22,490000	54,375000
2,715996	427,929919	332,492	0,103902	22,490000	54,375000
2,713079	425,014116	332,642	0,102672	22,490000	54,375000
2,710030	419,543515	332,793	0,100363	22,490000	54,375000
2,707046	415,663877	332,943	0,098726	22,490000	54,375000
2,704065	413,782490	333,094	0,097932	22,490000	54,375000
2,700999	409,878555	333,245	0,096285	22,490000	54,375000
2,698020	407,809723	333,395	0,095412	22,490000	54,375000
2,695043	403,780824	333,545	0,093711	22,490000	54,375000
2,692021	403,577181	333,695	0,093625	22,490000	54,375000
2,689036	397,847397	333,846	0,091208	22,490000	54,375000
2,686009	396,609338	333,996	0,090685	22,490000	54,375000
2,683051	391,687185	334,146	0,088608	22,490000	54,375000
2,679973	391,506683	334,296	0,088532	22,490000	54,375000
2,676998	387,963751	334,446	0,087037	22,490000	54,375000
2,674058	384,758683	334,596	0,085684	22,490000	54,375000
2,671010	382,478108	334,747	0,084722	22,490000	54,375000
2,667995	379,381804	334,897	0,083415	22,490000	54,375000
2,665017	376,661545	335,048	0,082267	22,490000	54,375000
2,662021	373,275974	335,198	0,080838	22,490000	54,375000
2,658987	368,243900	335,348	0,078715	22,490000	54,375000
2,656033	364,786591	335,498	0,077256	22,490000	54,375000
2,653043	362,404195	335,648	0,076250	22,490000	54,385000
2,650001	361,809464	335,798	0,076000	22,490000	54,385000
2,647051	355,891079	335,948	0,073502	22,490000	54,385000
2,644026	353,625546	336,098	0,072546	22,490000	54,385000
2,641009	350,443619	336,248	0,071203	22,490000	54,385000
2,638001	349,581605	336,398	0,070839	22,490000	54,385000
2,634970	343,922403	336,549	0,068451	22,490000	54,385000
2,632033	343,601896	336,699	0,068316	22,490000	54,385000
2,629023	338,153279	336,849	0,066017	22,490000	54,385000
2,625989	337,706652	336,999	0,065828	22,490000	54,385000
2,623012	332,086789	337,149	0,063457	22,490000	54,385000
2,620032	331,758183	337,299	0,063318	22,490000	54,385000
2,617024	326,138320	337,449	0,060946	22,490000	54,385000
2,614046	325,801614	337,599	0,060804	22,500000	54,405000
2,611006	319,836946	337,750	0,058287	22,500000	54,405000
2,608007	316,952384	337,901	0,057070	22,500000	54,405000
2,605044	315,023558	338,051	0,056256	22,500000	54,405000
2,602030	313,550615	338,201	0,055634	22,500000	54,405000
2,599011	309,012607	338,351	0,053719	22,500000	54,405000
2,595990	306,198626	338,502	0,052532	22,500000	54,405000
2,593038	303,361504	338,652	0,051334	22,500000	54,405000
2,590022	298,854737	338,802	0,049433	22,500000	54,405000
2,587079	295,444868	338,952	0,047994	22,500000	54,405000
2,583982	295,366188	339,102	0,047960	22,500000	54,405000
2,581049	290,969342	339,253	0,046105	22,500000	54,405000
2,577989	286,180252	339,403	0,044084	22,500000	54,405000
2,574994	286,423236	339,553	0,044187	22,500000	54,405000
2,572010	280,363689	339,704	0,041629	22,500000	54,390000
2,569052	280,787174	339,854	0,041808	22,500000	54,390000
2,566115	277,628388	340,004	0,040475	22,500000	54,390000
2,562994	271,561898	340,154	0,037915	22,500000	54,390000
2,560040	271,648678	340,304	0,037952	22,500000	54,390000
2,557052	268,340631	340,454	0,036556	22,500000	54,390000
2,554063	263,935686	340,604	0,034697	22,500000	54,390000
2,551011	262,375963	340,754	0,034039	22,500000	54,390000
2,548050	256,952801	340,904	0,031750	22,500000	54,390000
2,544976	256,246992	341,054	0,031452	22,500000	54,390000
2,542020	253,542932	341,205	0,030311	22,500000	54,390000
2,539037	247,460243	341,355	0,027744	22,500000	54,390000
2,536011	245,273391	341,505	0,026821	22,500000	54,390000
2,533000	241,315073	341,655	0,025151	22,490000	54,400000
2,530041	238,791515	341,805	0,024086	22,490000	54,400000
2,527012	237,976942	341,955	0,023742	22,490000	54,400000
2,524037	233,767541	342,105	0,021966	22,490000	54,400000
2,520997	229,456318	342,255	0,020146	22,490000	54,400000
2,517977	228,037757	342,405	0,019548	22,490000	54,400000
2,515007	223,570331	342,555	0,017663	22,490000	54,400000
2,512057	222,301031	342,705	0,017127	22,490000	54,400000
2,509031	220,474026	342,855	0,016356	22,490000	54,400000
2,506013	215,426911	343,005	0,014226	22,490000	54,400000
2,503054	214,588039	343,155	0,013872	22,490000	54,400000
2,500004	209,022558	343,305	0,011523	22,490000	54,400000
2,497064	208,685852	343,455	0,011381	22,490000	54,400000
2,494055	205,512024	343,605	0,010042	22,490000	54,400000
2,491068	199,319415	343,756	0,007429	22,490000	54,400000
2,488018	198,716584	343,907	0,007174	22,490000	54,400000
2,485043	193,692610	344,057	0,005054	22,490000	54,400000
2,482028	191,740642	344,207	0,004230	22,490000	54,400000
2,479046	190,611347	344,357	0,003754	22,490000	54,400000
2,476035	187,516199	344,507	0,002448	22,490000	54,400000
2,473033	184,584197	344,657	0,001210	22,490000	54,400000
2,470017	180,100572	344,808	-0,000682	22,490000	54,400000
2,467035	175,656287	344,959	-0,002557	22,490000	54,400000
2,464040	175,539424	345,109	-0,002606	22,490000	54,400000
2,461048	169,487976	345,259	-0,005160	22,490000	54,400000
2,458070	169,684677	345,410	-0,005077	22,490000	54,400000
2,455052	163,915553	345,561	-0,007512	22,490000	54,400000
2,451991	163,618187	345,711	-0,007637	22,480000	54,385000
2,448998	160,262700	345,861	-0,009053	22,480000	54,385000
2,445979	157,763440	346,011	-0,010108	22,480000	54,385000
2,443017	154,517874	346,161	-0,011478	22,480000	54,385000
2,440037	151,390329	346,312	-0,012797	22,480000	54,385000
2,437020	148,451385	346,463	-0,014038	22,480000	54,385000
2,434018	142,478617	346,613	-0,016558	22,480000	54,385000
2,431064	139,587113	346,763	-0,017778	22,480000	54,385000
2,428015	136,513950	346,914	-0,019075	22,480000	54,385000
2,425037	134,210234	347,064	-0,020047	22,480000	54,385000
2,422007	133,543765	347,216	-0,020329	22,480000	54,385000
2,419029	128,190027	347,366	-0,022588	22,480000	54,385000
2,416010	124,976859	347,516	-0,023944	22,480000	54,385000
2,413025	123,314157	347,666	-0,024646	22,480000	54,400000
2,409996	121,394587	347,816	-0,025456	22,480000	54,400000
2,407029	118,572506	347,966	-0,026646	22,480000	54,400000
2,404042	112,451635	348,116	-0,029229	22,480000	54,400000
2,401022	111,463502	348,266	-0,029646	22,480000	54,400000
2,398040	109,731376	348,416	-0,030377	22,480000	54,400000
2,395054	103,672986	348,567	-0,032934	22,480000	54,400000
2,392049	100,804623	348,718	-0,034145	22,480000	54,400000
2,389080	100,216834	348,868	-0,034393	22,480000	54,400000
2,386065	97,567156	349,018	-0,035511	22,480000	54,400000
2,382984	94,416469	349,168	-0,036840	22,480000	54,400000
2,379952	91,571247	349,319	-0,038041	22,480000	54,400000
2,377074	85,441119	349,470	-0,040628	22,480000	54,400000
2,374052	83,592130	349,620	-0,041408	22,480000	54,400000
2,371073	82,565814	349,770	-0,041841	22,480000	54,400000
2,368014	79,257766	349,920	-0,043237	22,480000	54,400000
2,365039	76,836030	350,070	-0,044259	22,480000	54,400000
2,362014	73,504841	350,220	-0,045665	22,480000	54,400000
2,359049	67,492734	350,370	-0,048202	22,480000	54,400000
2,355984	67,382813	350,520	-0,048249	22,480000	54,400000
2,352998	61,551207	350,670	-0,050709	22,480000	54,400000
2,350048	58,840205	350,820	-0,051854	22,480000	54,400000
2,347032	56,848897	350,971	-0,052694	22,480000	54,400000
2,344064	53,289766	351,121	-0,054196	22,480000	54,400000
2,341018	50,625046	351,272	-0,055320	22,480000	54,400000
2,338059	48,070248	351,422	-0,056398	22,480000	54,400000
2,335005	43,540340	351,572	-0,058310	22,480000	54,400000
2,332007	41,658953	351,722	-0,059104	22,490000	54,400000
2,329041	40,435936	351,872	-0,059620	22,490000	54,400000
2,326027	36,462576	352,022	-0,061297	22,490000	54,400000
2,323077	30,849656	352,172	-0,063666	22,490000	54,400000
2,320043	29,980700	352,322	-0,064032	22,490000	54,400000
2,317046	25,370955	352,472	-0,065978	22,490000	54,400000
2,314010	25,019207	352,622	-0,066126	22,490000	54,400000
2,311029	19,445627	352,772	-0,068478	22,490000	54,400000
2,308011	17,948386	352,922	-0,069110	22,490000	54,400000
2,304970	13,426577	353,072	-0,071018	22,490000	54,400000
2,302024	12,760108	353,222	-0,071299	22,490000	54,400000
2,299037	9,734384	353,372	-0,072576	22,490000	54,400000
2,296021	6,012108	353,522	-0,074147	22,490000	54,400000
2,293059	1,285499	353,674	-0,076142	22,490000	54,400000
2,290050	0,642171	353,824	-0,076413	22,490000	54,400000
2,286950	-4,899011	353,974	-0,078751	22,490000	54,400000
2,284056	-7,634312	354,124	-0,079906	22,490000	54,400000
2,281013	-10,118530	354,274	-0,080954	22,490000	54,400000
2,278059	-11,019883	354,424	-0,081334	22,490000	54,400000
2,275057	-13,912544	354,574	-0,082555	22,490000	54,400000
2,272042	-17,079430	354,724	-0,083892	22,490000	54,400000
2,269034	-22,353330	354,875	-0,086117	22,490000	54,400000
2,266055	-22,863596	355,025	-0,086333	22,490000	54,400000
2,262980	-25,676420	355,175	-0,087520	22,490000	54,400000
2,260024	-28,992567	355,326	-0,088919	22,490000	54,400000
2,256999	-34,157703	355,476	-0,091099	22,490000	54,400000
2,254049	-34,855413	355,626	-0,091393	22,480000	54,385000
2,251025	-37,700635	355,777	-0,092594	22,480000	54,385000
2,248009	-40,678919	355,928	-0,093851	22,480000	54,385000
2,245031	-44,817739	356,078	-0,095597	22,480000	54,385000
2,242035	-46,581106	356,228	-0,096341	22,480000	54,385000
2,239042	-51,322756	356,378	-0,098342	22,480000	54,385000
2,236021	-52,686935	356,529	-0,098918	22,480000	54,385000
2,233037	-57,264283	356,679	-0,100850	22,480000	54,385000
2,230048	-58,290599	356,830	-0,101283	22,480000	54,385000
2,227039	-64,412628	356,980	-0,103866	22,480000	54,385000
2,224065	-67,712576	357,130	-0,105259	22,480000	54,385000
2,221012	-68,261025	357,281	-0,105490	22,480000	54,385000
2,218018	-73,621705	357,432	-0,107752	22,480000	54,385000
2,215068	-75,769217	357,582	-0,108659	22,480000	54,385000
2,212054	-79,484551	357,732	-0,110227	22,500000	54,420000
2,208977	-80,377805	357,882	-0,110604	22,500000	54,420000
2,206036	-85,731543	358,032	-0,112863	22,500000	54,420000
2,203003	-87,417386	358,183	-0,113574	22,500000	54,420000
2,200043	-91,195201	358,334	-0,115168	22,500000	54,420000
2,197025	-94,761274	358,484	-0,116673	22,500000	54,420000
2,193993	-97,301031	358,634	-0,117745	22,500000	54,420000
2,191038	-97,888820	358,784	-0,117993	22,500000	54,420000
2,188069	-100,522299	358,935	-0,119104	22,500000	54,420000
2,185035	-103,696127	359,086	-0,120444	22,500000	54,420000
2,182016	-107,230959	359,237	-0,121936	22,500000	54,420000
2,179120	-112,757100	359,387	-0,124268	22,500000	54,420000
2,176024	-112,482875	359,537	-0,124152	22,500000	54,420000
2,172996	-115,398678	359,688	-0,125382	22,490000	54,385000
2,170007	-119,889246	359,838	-0,127277	22,490000	54,385000
2,167012	-121,519550	359,988	-0,127965	22,490000	54,385000
2,164040	-124,733875	360,138	-0,129322	22,490000	54,385000
2,161039	-130,713585	360,288	-0,131845	22,490000	54,385000
2,158060	-130,800365	360,438	-0,131882	22,490000	54,385000
2,155018	-135,205310	360,588	-0,133741	22,490000	54,385000
2,152081	-136,725692	360,739	-0,134382	22,490000	54,385000
2,149034	-142,564240	360,890	-0,136846	22,490000	54,385000
2,145982	-143,363772	361,040	-0,137184	22,490000	54,385000
2,143053	-148,694368	361,190	-0,139433	22,490000	54,385000
2,140064	-148,646929	361,340	-0,139413	22,490000	54,385000
2,136962	-154,760858	361,490	-0,141993	22,490000	54,385000
2,134016	-154,706476	361,640	-0,141970	22,490000	54,375000
2,131040	-160,224517	361,790	-0,144299	22,490000	54,375000
2,128031	-160,082198	361,941	-0,144239	22,490000	54,375000
2,125036	-166,306048	362,091	-0,146865	22,490000	54,375000
2,122060	-166,525890	362,241	-0,146958	22,490000	54,375000
2,119022	-172,223276	362,391	-0,149362	22,490000	54,375000
2,116014	-172,725442	362,541	-0,149574	22,490000	54,375000
2,113052	-177,435852	362,692	-0,151562	22,490000	54,375000
2,110046	-178,596388	362,842	-0,152052	22,490000	54,375000
2,107051	-184,702218	362,992	-0,154628	22,490000	54,375000
2,104019	-184,787841	363,142	-0,154665	22,490000	54,375000
2,100983	-190,470185	363,292	-0,157062	22,490000	54,375000
2,098045	-190,486384	363,442	-0,157069	22,490000	54,375000
2,095060	-194,687685	363,593	-0,158842	22,490000	54,375000
2,092035	-196,403612	363,743	-0,159566	22,490000	54,375000
2,089051	-201,310723	363,893	-0,161637	22,490000	54,375000
2,086017	-202,564981	364,043	-0,162167	22,490000	54,375000
2,083036	-205,645087	364,194	-0,163466	22,490000	54,375000
2,080118	-208,317906	364,344	-0,164594	22,490000	54,375000
2,077044	-211,609755	364,494	-0,165983	22,490000	54,375000
2,073983	-214,211993	364,644	-0,167082	22,490000	54,375000
2,071041	-217,887987	364,794	-0,168633	22,490000	54,375000
2,068031	-220,222943	364,944	-0,169618	22,490000	54,375000
2,065083	-223,460410	365,094	-0,170984	22,490000	54,375000
2,062005	-229,393837	365,244	-0,173488	22,490000	54,375000
2,059047	-229,323256	365,394	-0,173458	22,490000	54,375000
2,056032	-232,348980	365,545	-0,174735	22,490000	54,375000
2,052998	-236,824506	365,695	-0,176624	22,490000	54,400000
2,049953	-238,313648	365,845	-0,177252	22,490000	54,400000
2,047068	-242,726692	365,995	-0,179115	22,490000	54,400000
2,044045	-247,499583	366,146	-0,181129	22,490000	54,400000
2,041008	-247,507683	366,296	-0,181132	22,490000	54,400000
2,038041	-252,938944	366,447	-0,183424	22,490000	54,400000
2,034981	-253,448052	366,597	-0,183639	22,490000	54,400000
2,032056	-256,230793	366,747	-0,184813	22,490000	54,400000
2,029081	-262,533323	366,897	-0,187473	22,490000	54,400000
2,026078	-262,360921	367,047	-0,187400	22,490000	54,400000
2,023047	-265,723350	367,198	-0,188819	22,490000	54,400000
2,020036	-269,665469	367,348	-0,190483	22,490000	54,400000
2,016997	-271,358255	367,499	-0,191197	22,490000	54,400000
2,014021	-274,446460	367,650	-0,192500	22,500000	54,380000
2,011048	-279,416053	367,800	-0,194598	22,500000	54,380000
2,008003	-282,315656	367,950	-0,195821	22,500000	54,380000
2,005045	-283,389412	368,100	-0,196274	22,500000	54,380000
2,001990	-286,415136	368,251	-0,197551	22,500000	54,380000
1,999041	-292,332364	368,401	-0,200048	22,500000	54,380000
1,996079	-294,284332	368,551	-0,200872	22,500000	54,380000
1,993037	-295,264366	368,701	-0,201286	22,500000	54,380000
1,990019	-300,076598	368,851	-0,203316	22,500000	54,380000
1,987022	-303,893754	369,001	-0,204927	22,500000	54,380000
1,984061	-305,822580	369,151	-0,205741	22,500000	54,380000
1,981011	-307,303623	369,302	-0,206366	22,500000	54,380000
1,978029	-311,002758	369,453	-0,207927	22,500000	54,380000
1,975027	-316,128555	369,603	-0,210090	22,500000	54,380000
1,972057	-316,685103	369,753	-0,210325	22,500000	54,380000
1,969100	-319,334780	369,903	-0,211443	22,500000	54,380000
1,966036	-325,095805	370,054	-0,213875	22,500000	54,380000
1,962991	-327,501342	370,204	-0,214890	22,500000	54,380000
1,960032	-328,065990	370,354	-0,215128	22,500000	54,380000
1,957071	-331,170394	370,504	-0,216438	22,500000	54,380000
1,954030	-334,250500	370,654	-0,217738	22,500000	54,380000
1,950988	-340,034666	370,805	-0,220179	22,500000	54,380000
1,948017	-340,356330	370,955	-0,220314	22,500000	54,380000
1,945031	-346,242317	371,105	-0,222798	22,500000	54,380000
1,942029	-346,196035	371,255	-0,222779	22,500000	54,380000
1,939014	-351,187611	371,405	-0,224885	22,500000	54,380000
1,936061	-352,333105	371,555	-0,225369	22,500000	54,380000
1,933050	-355,365771	371,705	-0,226648	22,490000	54,375000
1,930066	-358,140412	371,855	-0,227819	22,490000	54,375000
1,927049	-363,853997	372,006	-0,230230	22,490000	54,375000
1,924056	-364,019457	372,156	-0,230300	22,490000	54,375000
1,920985	-369,372038	372,306	-0,232559	22,490000	54,375000
1,918057	-370,054706	372,456	-0,232847	22,490000	54,375000
1,915059	-373,016791	372,607	-0,234097	22,490000	54,375000
1,912088	-375,893254	372,758	-0,235311	22,490000	54,375000
1,909062	-379,138820	372,908	-0,236681	22,490000	54,375000
1,906049	-381,959743	373,059	-0,237871	22,490000	54,375000
1,903062	-386,121705	373,210	-0,239627	22,490000	54,375000
1,899985	-391,130637	373,360	-0,241741	22,490000	54,375000
1,897062	-392,243733	373,510	-0,242211	22,490000	54,375000
1,894081	-393,999000	373,660	-0,242952	22,480000	54,375000
1,891039	-397,118446	373,810	-0,244268	22,480000	54,375000
1,888074	-403,216177	373,961	-0,246841	22,480000	54,375000
1,885085	-403,741484	374,111	-0,247063	22,480000	54,375000
1,882039	-408,593056	374,262	-0,249110	22,480000	54,375000
1,879041	-409,440027	374,412	-0,249468	22,480000	54,375000
1,876087	-411,987883	374,562	-0,250543	22,480000	54,375000
1,873004	-414,683844	374,712	-0,251681	22,480000	54,375000
1,870029	-420,922736	374,862	-0,254313	22,480000	54,375000
1,867031	-422,137654	375,012	-0,254826	22,480000	54,375000
1,864116	-426,636321	375,162	-0,256725	22,480000	54,375000
1,861053	-426,997325	375,313	-0,256877	22,480000	54,375000
1,858083	-429,677086	375,463	-0,258008	22,480000	54,375000
1,855077	-432,781491	375,613	-0,259318	22,500000	54,390000
1,852054	-438,981043	375,763	-0,261934	22,500000	54,390000
1,849035	-438,762357	375,913	-0,261842	22,500000	54,390000
1,846046	-441,724443	376,064	-0,263092	22,500000	54,390000
1,843041	-446,662794	376,214	-0,265176	22,500000	54,390000
1,840068	-450,370029	376,364	-0,266740	22,500000	54,390000
1,837116	-450,440610	376,514	-0,266770	22,500000	54,390000
1,834068	-453,568156	376,664	-0,268090	22,500000	54,390000
1,831076	-459,798948	376,814	-0,270719	22,500000	54,390000
1,828052	-462,926494	376,964	-0,272039	22,500000	54,390000
1,825071	-463,036415	377,115	-0,272085	22,500000	54,390000
1,822107	-466,884812	377,265	-0,273709	22,500000	54,390000
1,819030	-468,585697	377,416	-0,274427	22,500000	54,390000
1,816050	-473,414127	377,566	-0,276465	22,500000	54,390000
1,813043	-475,090714	377,717	-0,277172	22,490000	54,330000
1,810022	-477,896595	377,868	-0,278356	22,490000	54,330000
1,807124	-483,618280	378,018	-0,280771	22,490000	54,330000
1,804011	-486,886987	378,169	-0,282150	22,490000	54,330000
1,801102	-489,786591	378,319	-0,283374	22,490000	54,330000
1,798062	-492,585530	378,470	-0,284555	22,490000	54,330000
1,795065	-495,109088	378,620	-0,285620	22,490000	54,330000
1,792028	-495,939860	378,770	-0,285971	22,490000	54,330000
1,789036	-501,638403	378,920	-0,288375	22,490000	54,330000
1,786032	-503,574172	379,070	-0,289192	22,490000	54,330000
1,783114	-507,846055	379,221	-0,290995	22,490000	54,330000
1,780066	-510,988642	379,371	-0,292321	22,490000	54,330000
1,777056	-512,211660	379,522	-0,292837	22,490000	54,330000
1,774066	-516,498584	379,672	-0,294646	22,490000	54,330000
1,771033	-518,944618	379,822	-0,295679	22,490000	54,330000
1,768094	-519,947793	379,972	-0,296102	22,490000	54,330000
1,765093	-525,121029	380,122	-0,298285	22,490000	54,330000
1,762024	-528,749583	380,272	-0,299816	22,490000	54,330000
1,759093	-529,831439	380,422	-0,300273	22,490000	54,330000
1,756049	-534,683011	380,573	-0,302320	22,490000	54,330000
1,753045	-536,525057	380,723	-0,303098	22,490000	54,330000
1,750065	-537,590714	380,873	-0,303547	22,490000	54,330000
1,747028	-541,800115	381,023	-0,305324	22,490000	54,330000
1,744078	-546,988392	381,173	-0,307513	22,490000	54,330000
1,741004	-547,646762	381,324	-0,307791	22,490000	54,330000
1,738083	-549,065323	381,474	-0,308390	22,490000	54,330000
1,735055	-554,066156	381,624	-0,310500	22,490000	54,385000
1,732045	-558,213076	381,774	-0,312250	22,490000	54,385000
1,729065	-558,871445	381,924	-0,312528	22,490000	54,385000
1,726088	-561,692369	382,075	-0,313718	22,490000	54,385000
1,723058	-565,470185	382,225	-0,315312	22,490000	54,385000
1,720078	-567,453393	382,375	-0,316149	22,490000	54,385000
1,717036	-571,208068	382,526	-0,317734	22,490000	54,385000
1,714068	-573,073256	382,676	-0,318521	22,490000	54,385000
1,711030	-577,094055	382,826	-0,320218	22,490000	54,385000
1,708032	-579,829356	382,976	-0,321372	22,490000	54,385000
1,705084	-582,886321	383,126	-0,322662	22,490000	54,385000
1,702017	-588,318739	383,276	-0,324955	22,490000	54,385000
1,699067	-588,271299	383,426	-0,324935	22,490000	54,385000
1,696097	-591,155861	383,577	-0,326152	22,490000	54,385000
1,693029	-597,206152	383,727	-0,328705	22,500000	54,365000
1,690063	-600,239975	383,877	-0,329985	22,500000	54,365000
1,687060	-600,216834	384,027	-0,329976	22,500000	54,365000
1,684048	-606,243983	384,178	-0,332519	22,500000	54,365000
1,681054	-606,173402	384,328	-0,332489	22,500000	54,365000
1,678074	-609,151687	384,478	-0,333746	22,500000	54,365000
1,675073	-612,381054	384,628	-0,335109	22,500000	54,365000
1,672056	-615,210077	384,778	-0,336303	22,500000	54,365000
1,669036	-618,368863	384,928	-0,337636	22,500000	54,365000
1,666065	-621,425828	385,078	-0,338926	22,500000	54,365000
1,663097	-627,108172	385,228	-0,341324	22,500000	54,365000
1,660068	-630,204476	385,378	-0,342630	22,500000	54,365000
1,657075	-630,408120	385,528	-0,342716	22,500000	54,365000
1,654066	-635,776899	385,678	-0,344982	22,490000	54,375000
1,651058	-639,132387	385,829	-0,346398	22,490000	54,375000
1,648075	-641,404862	385,979	-0,347357	22,490000	54,375000
1,645050	-642,156953	386,130	-0,347674	22,490000	54,375000
1,642034	-646,374454	386,281	-0,349454	22,490000	54,375000
1,639125	-651,241067	386,431	-0,351508	22,490000	54,375000
1,636132	-654,118687	386,581	-0,352722	22,490000	54,375000
1,633044	-653,757683	386,731	-0,352570	22,490000	54,375000
1,630046	-657,724100	386,881	-0,354244	22,490000	54,375000
1,627094	-662,943619	387,031	-0,356446	22,490000	54,375000
1,624119	-662,833697	387,182	-0,356400	22,490000	54,375000
1,621032	-668,900187	387,332	-0,358960	22,490000	54,375000
1,618121	-669,998241	387,482	-0,359423	22,490000	54,375000
1,615073	-674,974776	387,632	-0,361523	22,490000	54,375000
1,612100	-678,164803	387,783	-0,362870	22,490000	54,375000
1,609045	-677,984301	387,933	-0,362793	22,490000	54,375000
1,606079	-681,386071	388,083	-0,364229	22,490000	54,375000
1,603080	-686,943452	388,233	-0,366574	22,490000	54,375000
1,600069	-687,476859	388,383	-0,366799	22,490000	54,375000
1,597060	-692,665136	388,533	-0,368989	22,490000	54,375000
1,594128	-693,072423	388,684	-0,369161	22,490000	54,375000
1,591077	-695,792682	388,834	-0,370309	22,490000	54,375000
1,588079	-701,780491	388,984	-0,372835	22,490000	54,375000
1,585076	-701,985291	389,134	-0,372922	22,490000	54,375000
1,582060	-704,947377	389,285	-0,374172	22,490000	54,375000
1,579066	-710,481617	389,435	-0,376507	22,490000	54,375000
1,576088	-710,880804	389,585	-0,376676	22,490000	54,375000
1,573114	-715,316989	389,735	-0,378548	22,500000	54,420000
1,570096	-716,453227	389,886	-0,379027	22,500000	54,420000
1,567065	-721,893744	390,036	-0,381323	22,500000	54,420000
1,564108	-725,584780	390,186	-0,382881	22,500000	54,420000
1,561065	-726,533573	390,336	-0,383281	22,500000	54,420000
1,558124	-731,651270	390,487	-0,385441	22,500000	54,420000
1,555076	-733,493317	390,637	-0,386218	22,500000	54,420000
1,552105	-734,598313	390,787	-0,386685	22,500000	54,420000
1,549059	-739,183760	390,937	-0,388620	22,500000	54,420000
1,546060	-740,406778	391,088	-0,389136	22,500000	54,420000
1,543079	-744,544441	391,238	-0,390882	22,500000	54,420000
1,540098	-749,397169	391,388	-0,392930	22,500000	54,420000
1,537117	-749,404112	391,538	-0,392933	22,500000	54,420000
1,534084	-755,541182	391,688	-0,395522	22,490000	54,430000
1,531118	-757,007183	391,839	-0,396141	22,490000	54,430000
1,528074	-758,222101	391,989	-0,396654	22,490000	54,430000
1,525050	-762,344722	392,139	-0,398394	22,490000	54,430000
1,522124	-767,534157	392,289	-0,400583	22,490000	54,430000
1,519068	-767,705402	392,439	-0,400656	22,490000	54,430000
1,516055	-773,122778	392,590	-0,402942	22,490000	54,430000
1,513100	-776,084864	392,740	-0,404192	22,490000	54,430000
1,510062	-779,368613	392,890	-0,405578	22,490000	54,430000
1,507044	-779,353571	393,040	-0,405571	22,490000	54,430000
1,504070	-785,019716	393,190	-0,407962	22,490000	54,430000
1,501007	-785,326338	393,340	-0,408092	22,490000	54,430000
1,498101	-790,882563	393,491	-0,410437	22,490000	54,430000
1,495072	-791,291006	393,641	-0,410609	22,480000	54,375000
1,492054	-797,168894	393,791	-0,413089	22,480000	54,375000
1,489104	-797,231376	393,941	-0,413116	22,480000	54,375000
1,486073	-803,314064	394,092	-0,415683	22,480000	54,375000
1,483133	-803,181002	394,242	-0,415626	22,480000	54,375000
1,480073	-807,530408	394,393	-0,417462	22,480000	54,375000
1,477086	-812,115855	394,544	-0,419397	22,480000	54,375000
1,474085	-812,217676	394,694	-0,419440	22,480000	54,375000
1,471147	-815,164720	394,845	-0,420684	22,480000	54,375000
1,468126	-819,679586	394,995	-0,422589	22,480000	54,375000
1,465097	-820,863263	395,145	-0,423088	22,480000	54,375000
1,462087	-823,959568	395,296	-0,424395	22,480000	54,375000
1,459073	-827,008433	395,446	-0,425682	22,480000	54,375000
1,456123	-831,099813	395,596	-0,427408	22,480000	54,375000
1,453118	-835,629721	395,746	-0,429320	22,480000	54,385000
1,450037	-835,880804	395,896	-0,429426	22,480000	54,385000
1,447092	-841,751749	396,046	-0,431903	22,480000	54,385000
1,444072	-842,119696	396,196	-0,432059	22,480000	54,385000
1,441075	-844,455809	396,346	-0,433044	22,480000	54,385000
1,438111	-848,539090	396,496	-0,434768	22,480000	54,385000
1,435146	-850,381137	396,647	-0,435545	22,480000	54,385000
1,432107	-853,743567	396,798	-0,436964	22,480000	54,385000
1,429093	-857,944868	396,949	-0,438737	22,480000	54,385000
1,426067	-859,457152	397,100	-0,439375	22,480000	54,385000
1,423073	-864,591047	397,250	-0,441542	22,480000	54,385000
1,420110	-867,749833	397,400	-0,442875	22,480000	54,385000
1,417080	-871,112263	397,550	-0,444293	22,480000	54,385000
1,414106	-871,394587	397,700	-0,444413	22,500000	54,365000
1,411122	-874,451551	397,850	-0,445703	22,500000	54,365000
1,408051	-877,328014	398,000	-0,446917	22,500000	54,365000
1,405077	-881,168311	398,150	-0,448537	22,500000	54,365000
1,402065	-883,379462	398,300	-0,449470	22,500000	54,365000
1,399100	-888,677660	398,450	-0,451706	22,500000	54,365000
1,396095	-889,139329	398,600	-0,451901	22,500000	54,365000
1,393101	-892,290016	398,751	-0,453230	22,500000	54,365000
1,390102	-898,278982	398,901	-0,455758	22,500000	54,365000
1,387033	-898,333364	399,051	-0,455781	22,500000	54,365000
1,384064	-901,061722	399,201	-0,456932	22,500000	54,365000
1,381082	-904,721518	399,351	-0,458477	22,500000	54,365000
1,378122	-906,916469	399,501	-0,459403	22,500000	54,365000
1,375097	-911,830522	399,651	-0,461477	22,500000	54,365000
1,372110	-915,201052	399,801	-0,462899	22,500000	54,365000
1,369053	-916,706393	399,952	-0,463534	22,500000	54,365000
1,366070	-921,659786	400,103	-0,465625	22,500000	54,365000
1,363051	-922,544940	400,253	-0,465998	22,500000	54,365000
1,360071	-924,301364	400,403	-0,466739	22,500000	54,365000
1,357095	-928,000500	400,553	-0,468300	22,500000	54,365000
1,354088	-930,266032	400,703	-0,469256	22,500000	54,365000
1,351073	-933,259358	400,853	-0,470520	22,500000	54,365000
1,348096	-1,042515	401,003	-0,077124	22,500000	54,365000
1,345139	-0,407287	401,153	-0,076856	22,500000	54,365000
1,342098	-0,093722	401,304	-0,076724	22,500000	54,365000
1,339093	-0,124963	401,454	-0,076737	22,500000	54,365000
1,336081	-0,282324	401,605	-0,076803	22,490000	54,400000
1,333089	-0,266125	401,755	-0,076796	22,490000	54,400000
1,330092	-0,047440	401,905	-0,076704	22,490000	54,400000
1,327075	-0,156204	402,055	-0,076750	22,490000	54,400000
1,324107	0,234884	402,205	-0,076585	22,490000	54,400000
1,321128	0,141162	402,357	-0,076625	22,490000	54,400000
1,318122	0,000000	402,507	-0,076684	22,490000	54,400000
1,315075	0,219842	402,658	-0,076591	22,490000	54,400000
1,312075	0,126120	402,808	-0,076631	22,490000	54,400000
1,309144	0,093722	402,958	-0,076645	22,490000	54,400000
1,306031	0,141162	403,108	-0,076625	22,490000	54,400000
1,303090	-0,039340	403,259	-0,076701	22,490000	54,400000
1,300057	-0,078680	403,410	-0,076717	22,490000	54,400000
1,297098	0,305465	403,560	-0,076555	22,490000	54,400000
1,294081	0,062481	403,710	-0,076658	22,500000	54,380000
1,291082	0,211743	403,860	-0,076595	22,500000	54,380000
1,288051	0,226785	404,010	-0,076588	22,500000	54,380000
