Quasi static measurement routine
Tip parameters (shape,radius, material...) 
24.08.2022

Piezo position[nm]	MEMS displ.[nm]	Time[ms]	Cap [pf]	Temp [°C]	Rh [%]
eoh
2,619908	0,165623	0,222	-0,121575	22,350000	51,555000
2,621864	-0,116550	0,322	-0,121688	22,350000	51,555000
2,623952	2,359208	0,422	-0,120702	22,350000	51,555000
2,625856	4,296384	0,522	-0,119931	22,350000	51,555000
2,627876	7,403963	0,623	-0,118694	22,350000	51,555000
2,629928	9,914072	0,723	-0,117695	22,350000	51,555000
2,631932	12,208258	0,823	-0,116782	22,350000	51,555000
2,633922	14,311057	0,924	-0,115945	22,350000	51,580000
2,635898	16,288719	1,025	-0,115158	22,350000	51,580000
2,637931	16,354968	1,125	-0,115132	22,350000	51,580000
2,639901	18,398879	1,226	-0,114318	22,350000	51,580000
2,641872	20,310292	1,326	-0,113558	22,350000	51,580000
2,643886	22,172631	1,426	-0,112816	22,350000	51,580000
2,645880	26,327929	1,527	-0,111163	22,350000	51,580000
2,647911	26,244504	1,627	-0,111196	22,350000	51,580000
2,649909	28,554638	1,728	-0,110276	22,350000	51,580000
2,651925	30,524939	1,828	-0,109492	22,350000	51,580000
2,653923	34,604173	1,928	-0,107869	22,350000	51,580000
2,655911	36,632135	2,029	-0,107062	22,350000	51,580000
2,657913	38,602436	2,129	-0,106277	22,350000	51,580000
2,659905	40,621810	2,229	-0,105474	22,350000	51,580000
2,661891	42,790859	2,329	-0,104610	22,350000	51,580000
2,663866	42,441210	2,429	-0,104750	22,350000	51,580000
2,665954	44,420099	2,529	-0,103962	22,350000	51,580000
2,667894	46,697109	2,630	-0,103056	22,350000	51,580000
2,669936	48,674770	2,731	-0,102269	22,350000	51,580000
2,671935	50,727269	2,831	-0,101452	22,350000	51,580000
2,673881	52,904905	2,932	-0,100585	22,350000	51,580000
2,675933	54,658056	3,032	-0,099887	22,350000	51,580000
2,677916	58,929903	3,133	-0,098187	22,350000	51,580000
2,679875	60,907565	3,234	-0,097400	22,350000	51,580000
2,681876	62,836153	3,334	-0,096632	22,350000	51,580000
2,683873	64,897240	3,434	-0,095812	22,350000	51,580000
2,685873	66,643030	3,535	-0,095117	22,350000	51,580000
2,687908	66,709279	3,636	-0,095091	22,350000	51,580000
2,689912	68,669765	3,736	-0,094311	22,350000	51,580000
2,691906	70,697727	3,836	-0,093503	22,350000	51,580000
2,693861	74,778188	3,937	-0,091879	22,350000	51,580000
2,695903	75,143785	4,037	-0,091734	22,350000	51,580000
2,697889	77,114086	4,138	-0,090950	22,350000	51,580000
2,699868	80,529601	4,238	-0,089590	22,350000	51,580000
2,701933	82,789435	4,339	-0,088691	22,350000	51,580000
2,703877	82,806611	4,440	-0,088684	22,350000	51,580000
2,705877	86,338676	4,540	-0,087278	22,350000	51,580000
2,707883	87,186420	4,640	-0,086941	22,350000	51,580000
2,709909	88,972696	4,741	-0,086230	22,350000	51,580000
2,711910	91,216581	4,842	-0,085337	22,350000	51,580000
2,713923	93,486230	4,942	-0,084434	22,350000	51,555000
2,715873	95,030818	5,043	-0,083819	22,350000	51,555000
2,717914	98,654896	5,143	-0,082376	22,350000	51,555000
2,719906	98,937068	5,243	-0,082264	22,350000	51,555000
2,721914	100,790819	5,344	-0,081526	22,350000	51,555000
2,723861	103,283753	5,444	-0,080534	22,350000	51,555000
2,725878	106,831766	5,544	-0,079122	22,350000	51,555000
2,727806	107,172827	5,645	-0,078986	22,350000	51,555000
2,729913	109,176252	5,745	-0,078189	22,350000	51,555000
2,731906	110,830029	5,845	-0,077531	22,350000	51,555000
2,733859	113,897122	5,945	-0,076310	22,350000	51,555000
2,735856	114,353506	6,046	-0,076128	22,350000	51,555000
2,737877	116,747065	6,146	-0,075176	22,350000	51,555000
2,739914	119,347961	6,246	-0,074141	22,350000	51,555000
2,741908	121,159999	6,346	-0,073419	22,350000	51,555000
2,743863	123,603859	6,446	-0,072447	22,350000	51,555000
2,745878	125,015949	6,547	-0,071885	22,350000	51,555000
2,747859	128,946736	6,647	-0,070320	22,350000	51,555000
2,749889	128,913611	6,747	-0,070333	22,350000	51,555000
2,751902	132,786736	6,847	-0,068792	22,350000	51,555000
2,753815	135,105459	6,947	-0,067869	22,350000	51,565000
2,755882	137,182495	7,048	-0,067042	22,350000	51,565000
2,757908	138,728310	7,148	-0,066427	22,350000	51,565000
2,759848	140,923121	7,248	-0,065554	22,350000	51,565000
2,761906	143,024694	7,348	-0,064717	22,350000	51,565000
2,763872	144,928745	7,449	-0,063959	22,350000	51,565000
2,765820	144,387710	7,549	-0,064175	22,350000	51,565000
2,767884	147,105155	7,650	-0,063093	22,350000	51,565000
2,769926	148,917193	7,750	-0,062372	22,350000	51,565000
2,771819	152,823443	7,850	-0,060817	22,350000	51,565000
2,773835	153,446677	7,950	-0,060569	22,350000	51,565000
2,775907	157,053578	8,050	-0,059134	22,350000	51,565000
2,777859	159,039828	8,150	-0,058343	22,350000	51,565000
2,779898	160,801566	8,250	-0,057642	22,350000	51,565000
2,781953	163,003739	8,351	-0,056766	22,350000	51,565000
2,783947	164,774066	8,451	-0,056061	22,350000	51,565000
2,785844	166,502679	8,551	-0,055373	22,350000	51,565000
2,787876	168,513466	8,652	-0,054573	22,350000	51,565000
2,789868	170,200367	8,752	-0,053901	22,350000	51,565000
2,791954	172,818438	8,852	-0,052859	22,350000	51,565000
2,793927	175,128573	8,953	-0,051940	22,350000	51,565000
2,795918	176,649851	9,053	-0,051334	22,350000	51,565000
2,797873	176,592189	9,154	-0,051357	22,350000	51,565000
2,799894	180,697187	9,254	-0,049724	22,350000	51,565000
2,801887	180,846861	9,354	-0,049664	22,350000	51,565000
2,803860	182,674849	9,454	-0,048937	22,350000	51,565000
2,805861	184,612025	9,555	-0,048166	22,350000	51,565000
2,807851	186,539386	9,655	-0,047398	22,350000	51,565000
2,809882	190,744985	9,755	-0,045725	22,350000	51,565000
2,811895	191,883490	9,855	-0,045271	22,350000	51,565000
2,813856	192,905445	9,956	-0,044865	22,350000	51,565000
2,815896	195,573816	10,056	-0,043803	22,350000	51,565000
2,817900	197,160117	10,156	-0,043171	22,350000	51,565000
2,819871	199,121830	10,257	-0,042391	22,350000	51,565000
2,821900	200,792782	10,357	-0,041726	22,350000	51,565000
2,823890	203,858649	10,457	-0,040505	22,350000	51,565000
2,825882	205,014329	10,558	-0,040045	22,350000	51,565000
2,827860	207,972234	10,658	-0,038868	22,350000	51,565000
2,829865	208,845742	10,759	-0,038521	22,350000	51,565000
2,831867	211,413513	10,859	-0,037499	22,350000	51,565000
2,833864	212,942152	10,959	-0,036890	22,350000	51,565000
2,835898	215,078076	11,059	-0,036040	22,350000	51,565000
2,837919	216,764977	11,159	-0,035369	22,350000	51,565000
2,839902	219,116824	11,259	-0,034433	22,350000	51,565000
2,841863	222,591228	11,360	-0,033050	22,350000	51,565000
2,843821	222,824327	11,460	-0,032957	22,350000	51,565000
2,845937	226,255791	11,560	-0,031591	22,350000	51,565000
2,847882	226,654513	11,660	-0,031433	22,350000	51,565000
2,849942	228,849325	11,760	-0,030559	22,350000	51,565000
2,851920	230,851523	11,860	-0,029762	22,350000	51,565000
2,853901	233,079460	11,960	-0,028875	22,350000	51,565000
2,855842	234,749185	12,061	-0,028211	22,350000	51,565000
2,857890	236,759972	12,162	-0,027411	22,350000	51,565000
2,859879	238,472637	12,263	-0,026729	22,350000	51,565000
2,861848	240,890733	12,363	-0,025767	22,350000	51,565000
2,863844	242,553098	12,463	-0,025105	22,350000	51,565000
2,865888	244,805571	12,563	-0,024208	22,350000	51,565000
2,867869	249,068830	12,663	-0,022512	22,350000	51,565000
2,869820	250,747144	12,763	-0,021844	22,350000	51,565000
2,871827	253,008205	12,864	-0,020944	22,350000	51,565000
2,873854	254,952742	12,964	-0,020170	22,360000	51,585000
2,875895	256,855567	13,064	-0,019413	22,360000	51,585000
2,877928	256,980704	13,164	-0,019363	22,360000	51,585000
2,879903	258,883529	13,264	-0,018605	22,360000	51,585000
2,881910	260,720104	13,364	-0,017875	22,360000	51,585000
2,883885	262,781191	13,464	-0,017054	22,360000	51,585000
2,885909	264,758853	13,564	-0,016267	22,360000	51,585000
2,887883	268,988988	13,664	-0,014583	22,360000	51,585000
2,889873	270,891813	13,764	-0,013826	22,360000	51,585000
2,891895	272,844938	13,865	-0,013049	22,360000	51,585000
2,893931	275,072874	13,965	-0,012162	22,360000	51,585000
2,895901	277,174446	14,065	-0,011326	22,360000	51,585000
2,897873	278,928824	14,165	-0,010627	22,360000	51,585000
2,899856	281,073335	14,265	-0,009774	22,360000	51,585000
2,901839	283,125834	14,365	-0,008957	22,360000	51,585000
2,903861	283,423956	14,465	-0,008838	22,360000	51,585000
2,905912	284,804148	14,567	-0,008289	22,360000	51,585000
2,907908	287,214883	14,667	-0,007330	22,360000	51,585000
2,909864	289,258794	14,767	-0,006516	22,360000	51,585000
2,911880	290,929746	14,867	-0,005851	22,360000	51,585000
2,913858	293,405504	14,967	-0,004866	22,360000	51,585000
2,915837	296,140124	15,067	-0,003777	22,360000	51,585000
2,917906	298,815857	15,167	-0,002712	22,360000	51,585000
2,919855	300,902707	15,267	-0,001882	22,360000	51,585000
2,921891	303,237378	15,367	-0,000953	22,360000	51,585000
2,923867	305,239577	15,467	-0,000156	22,360000	51,585000
2,925888	304,882567	15,567	-0,000298	22,360000	51,585000
2,927883	306,943654	15,668	0,000522	22,360000	51,585000
2,929917	308,821942	15,768	0,001270	22,360000	51,585000
2,931858	311,206913	15,868	0,002219	22,360000	51,585000
2,933881	313,036128	15,969	0,002947	22,360000	51,585000
2,935866	315,071451	16,070	0,003757	22,360000	51,585000
2,937803	317,872321	16,170	0,004872	22,360000	51,585000
2,939864	319,783733	16,271	0,005633	22,360000	51,585000
2,941895	321,354085	16,371	0,006258	22,360000	51,585000
2,943898	322,908488	16,472	0,006876	22,360000	51,585000
2,945866	325,119249	16,573	0,007756	22,360000	51,585000
2,947898	328,999735	16,674	0,009301	22,360000	51,585000
2,949905	328,609601	16,774	0,009146	22,360000	51,585000
2,951871	331,011748	16,874	0,010102	22,360000	51,585000
2,953882	333,604055	16,974	0,011133	22,350000	51,555000
2,955861	335,365794	17,075	0,011834	22,350000	51,555000
2,957858	337,195008	17,175	0,012563	22,350000	51,555000
2,959926	339,040172	17,277	0,013297	22,350000	51,555000
2,961831	340,992070	17,378	0,014074	22,350000	51,555000
2,963838	343,037208	17,478	0,014888	22,350000	51,555000
2,965916	345,180492	17,578	0,015741	22,350000	51,555000
2,967877	349,469516	17,678	0,017448	22,350000	51,555000
2,969826	351,048455	17,778	0,018076	22,350000	51,555000
2,971843	352,178372	17,879	0,018526	22,350000	51,555000
2,973868	355,285951	17,980	0,019763	22,350000	51,555000
2,975886	355,162041	18,080	0,019713	22,350000	51,555000
2,977895	357,181415	18,180	0,020517	22,350000	51,555000
2,979840	359,017990	18,280	0,021248	22,350000	51,555000
2,981887	360,929403	18,381	0,022009	22,350000	51,555000
2,983840	364,901902	18,481	0,023590	22,350000	51,555000
2,985816	366,872203	18,582	0,024374	22,350000	51,555000
2,987864	369,006900	18,682	0,025224	22,350000	51,555000
2,989877	371,093750	18,782	0,026054	22,350000	51,555000
2,991876	372,972038	18,883	0,026802	22,350000	51,555000
2,993865	375,141086	18,985	0,027665	22,350000	51,555000
2,995822	376,744563	19,085	0,028303	22,350000	51,555000
2,997851	378,997036	19,185	0,029200	22,350000	51,555000
2,999884	378,930787	19,285	0,029173	22,350000	51,555000
3,001895	381,007822	19,386	0,030000	22,350000	51,555000
3,003875	382,944998	19,486	0,030771	22,350000	51,555000
3,005895	385,121408	19,586	0,031637	22,350000	51,555000
3,007832	387,016871	19,686	0,032392	22,350000	51,555000
3,009875	390,921895	19,786	0,033946	22,350000	51,555000
3,011843	391,711978	19,886	0,034260	22,350000	51,555000
3,013833	394,603633	19,987	0,035411	22,350000	51,555000
3,015882	396,715020	20,088	0,036251	22,350000	51,555000
3,017873	398,401922	20,189	0,036923	22,350000	51,555000
3,019858	399,623852	20,289	0,037409	22,350000	51,555000
3,021852	401,127954	20,390	0,038008	22,350000	51,555000
3,023871	403,712900	20,490	0,039037	22,350000	51,555000
3,025847	405,316377	20,590	0,039675	22,350000	51,555000
3,027858	407,494013	20,691	0,040542	22,350000	51,555000
3,029880	409,645886	20,791	0,041398	22,350000	51,555000
3,031856	411,391675	20,892	0,042093	22,350000	51,555000
3,033824	413,377925	20,992	0,042883	22,350000	51,565000
3,035841	415,348226	21,093	0,043667	22,350000	51,565000
3,037878	417,491510	21,193	0,044521	22,350000	51,565000
3,039854	419,253249	21,293	0,045222	22,350000	51,565000
3,041818	423,126374	21,393	0,046763	22,350000	51,565000
3,043874	425,137160	21,493	0,047563	22,350000	51,565000
3,045874	425,095448	21,593	0,047547	22,350000	51,565000
3,047845	427,065749	21,694	0,048331	22,350000	51,565000
3,049842	428,761238	21,794	0,049006	22,350000	51,565000
3,051860	431,254171	21,895	0,049998	22,350000	51,565000
3,053876	433,007322	21,995	0,050696	22,350000	51,565000
3,055888	435,200907	22,096	0,051569	22,350000	51,565000
3,057853	437,021533	22,196	0,052293	22,350000	51,565000
3,059876	438,899821	22,296	0,053041	22,350000	51,565000
3,061863	443,295579	22,397	0,054791	22,350000	51,565000
3,063872	443,072295	22,497	0,054702	22,350000	51,565000
3,065880	445,166506	22,597	0,055535	22,350000	51,565000
3,067887	447,401804	22,698	0,056425	22,350000	51,565000
3,069874	448,831069	22,798	0,056994	22,350000	51,565000
3,071869	451,249166	22,898	0,057956	22,350000	51,565000
3,073815	455,354163	22,999	0,059590	22,360000	51,570000
3,075879	455,171365	23,100	0,059517	22,360000	51,570000
3,077863	459,634599	23,201	0,061293	22,360000	51,570000
3,079908	460,964490	23,301	0,061823	22,360000	51,570000
3,081903	463,466012	23,401	0,062818	22,360000	51,570000
3,083919	462,966689	23,501	0,062620	22,360000	51,570000
3,085819	464,912453	23,601	0,063394	22,360000	51,570000
3,087885	468,751227	23,702	0,064922	22,360000	51,570000
3,089829	469,898320	23,803	0,065378	22,360000	51,570000
3,091912	472,815739	23,903	0,066540	22,360000	51,570000
3,093852	474,826525	24,003	0,067340	22,360000	51,570000
3,095838	476,614027	24,103	0,068051	22,360000	51,570000
3,097858	479,214922	24,203	0,069086	22,360000	51,570000
3,099888	478,940111	24,304	0,068977	22,360000	51,570000
3,101918	482,489351	24,404	0,070390	22,360000	51,570000
3,103849	483,178834	24,504	0,070664	22,360000	51,570000
3,105871	485,090246	24,604	0,071425	22,360000	51,570000
3,107848	488,081276	24,704	0,072615	22,360000	51,570000
3,109846	490,192663	24,804	0,073456	22,360000	51,570000
3,111827	491,106656	24,904	0,073819	22,360000	51,570000
3,113808	494,904945	25,004	0,075331	22,350000	51,565000
3,115856	496,351386	25,104	0,075907	22,350000	51,565000
3,117833	498,595271	25,204	0,076800	22,350000	51,565000
3,119877	501,046492	25,305	0,077775	22,350000	51,565000
3,121838	502,052499	25,405	0,078176	22,350000	51,565000
3,123900	503,589726	25,505	0,078788	22,350000	51,565000
3,125883	507,445676	25,605	0,080322	22,350000	51,565000
3,127874	508,276245	25,705	0,080653	22,350000	51,565000
3,129834	510,022034	25,805	0,081348	22,350000	51,565000
3,131823	513,637524	25,906	0,082787	22,350000	51,565000
3,133847	513,503798	26,006	0,082733	22,350000	51,565000
3,135871	515,540348	26,106	0,083544	22,350000	51,565000
3,137885	517,651735	26,207	0,084384	22,350000	51,565000
3,139864	521,241461	26,308	0,085813	22,350000	51,565000
3,141879	521,607059	26,408	0,085958	22,350000	51,565000
3,143834	523,676733	26,508	0,086782	22,350000	51,565000
3,145843	525,762357	26,608	0,087612	22,350000	51,565000
3,147805	527,649232	26,708	0,088363	22,350000	51,565000
3,149847	529,360671	26,808	0,089044	22,350000	51,565000
3,151843	531,837655	26,908	0,090030	22,340000	51,555000
3,153800	532,943035	27,009	0,090470	22,340000	51,555000
3,155822	535,510806	27,110	0,091492	22,340000	51,555000
3,157839	537,364557	27,210	0,092230	22,340000	51,555000
3,159892	539,608443	27,310	0,093123	22,340000	51,555000
3,161885	541,868277	27,410	0,094022	22,340000	51,555000
3,163809	545,516891	27,510	0,095475	22,340000	51,555000
3,165801	545,840776	27,610	0,095604	22,340000	51,555000
3,167799	549,048956	27,710	0,096880	22,340000	51,555000
3,169797	551,284253	27,810	0,097770	22,340000	51,555000
3,171849	551,517352	27,910	0,097863	22,340000	51,555000
3,173889	553,261915	28,011	0,098557	22,340000	51,555000
3,175829	555,422376	28,111	0,099417	22,340000	51,555000
3,177847	557,309251	28,211	0,100168	22,340000	51,555000
3,179862	559,178951	28,312	0,100912	22,340000	51,555000
3,181884	563,443438	28,413	0,102609	22,340000	51,555000
3,183837	565,462812	28,513	0,103413	22,340000	51,555000
3,185827	567,482186	28,614	0,104217	22,340000	51,555000
3,187823	569,359247	28,714	0,104964	22,340000	51,555000
3,189873	571,197050	28,815	0,105695	22,340000	51,555000
3,191836	573,456884	28,915	0,106595	22,360000	51,560000
3,193846	573,324386	29,015	0,106542	22,360000	51,560000
3,195828	575,451721	29,115	0,107389	22,360000	51,560000
3,197810	577,304246	29,216	0,108126	22,360000	51,560000
3,199794	579,149409	29,316	0,108860	22,360000	51,560000
3,201831	581,417831	29,416	0,109763	22,360000	51,560000
3,203834	582,923161	29,516	0,110362	22,360000	51,560000
3,205823	586,180414	29,617	0,111659	22,360000	51,560000
3,207846	588,798485	29,717	0,112701	22,360000	51,560000
3,209845	591,000658	29,817	0,113577	22,360000	51,560000
3,211853	593,202831	29,917	0,114454	22,360000	51,560000
3,213798	595,065170	30,017	0,115195	22,360000	51,560000
3,215832	597,183918	30,118	0,116038	22,360000	51,560000
3,217814	599,194704	30,218	0,116838	22,360000	51,560000
3,219877	601,414053	30,318	0,117722	22,360000	51,560000
3,221792	601,214078	30,418	0,117642	22,360000	51,560000
3,223856	604,970654	30,518	0,119137	22,360000	51,560000
3,225849	605,802450	30,618	0,119468	22,360000	51,560000
3,227861	609,375000	30,720	0,120890	22,360000	51,560000
3,229894	610,248508	30,820	0,121238	22,360000	51,560000
3,231819	611,993071	30,921	0,121932	22,340000	51,595000
3,233820	615,633097	31,021	0,123381	22,340000	51,595000
3,235805	617,345762	31,121	0,124063	22,340000	51,595000
3,237813	618,658478	31,221	0,124585	22,340000	51,595000
3,239828	621,342798	31,321	0,125653	22,340000	51,595000
3,241834	622,140242	31,422	0,125971	22,340000	51,595000
3,243872	624,185380	31,523	0,126785	22,340000	51,595000
3,245867	626,096793	31,624	0,127545	22,340000	51,595000
3,247826	629,188423	31,724	0,128776	22,340000	51,595000
3,249826	629,569969	31,824	0,128928	22,340000	51,595000
3,251784	631,888692	31,924	0,129851	22,340000	51,595000
3,253772	633,209995	32,025	0,130376	22,340000	51,595000
3,255809	635,520130	32,125	0,131296	22,340000	51,595000
3,257776	637,573856	32,226	0,132113	22,340000	51,595000
3,259789	639,476680	32,326	0,132871	22,340000	51,595000
3,261784	641,296080	32,426	0,133595	22,340000	51,595000
3,263802	645,160618	32,526	0,135133	22,340000	51,595000
3,265791	645,285755	32,626	0,135183	22,340000	51,595000
3,267833	647,479340	32,726	0,136056	22,340000	51,595000
3,269869	649,324503	32,826	0,136790	22,340000	51,595000
3,271812	651,343878	32,926	0,137594	22,340000	51,595000
3,273774	655,199827	33,026	0,139128	22,340000	51,595000
3,275870	655,008441	33,127	0,139052	22,340000	51,595000
3,277805	657,252326	33,228	0,139945	22,340000	51,595000
3,279865	659,189502	33,328	0,140716	22,340000	51,595000
3,281838	661,125451	33,428	0,141487	22,340000	51,595000
3,283860	665,205912	33,528	0,143111	22,340000	51,595000
3,285844	667,209338	33,628	0,143908	22,340000	51,595000
3,287759	667,258411	33,728	0,143928	22,340000	51,595000
3,289854	671,605096	33,828	0,145658	22,340000	51,595000
3,291901	673,350885	33,928	0,146353	22,340000	51,595000
3,293786	675,269659	34,028	0,147116	22,340000	51,595000
3,295843	677,090285	34,128	0,147841	22,340000	51,595000
3,297764	679,275283	34,228	0,148710	22,340000	51,595000
3,299833	681,370721	34,329	0,149544	22,340000	51,595000
3,301790	683,064983	34,429	0,150219	22,340000	51,595000
3,303825	683,148408	34,529	0,150252	22,340000	51,595000
3,305785	685,176370	34,629	0,151059	22,340000	51,595000
3,307845	687,320882	34,729	0,151913	22,340000	51,595000
3,309792	688,941534	34,829	0,152558	22,340000	51,595000
3,311805	693,171669	34,929	0,154241	22,360000	51,570000
3,313802	692,714059	35,029	0,154059	22,360000	51,570000
3,315719	695,415554	35,130	0,155134	22,360000	51,570000
3,317796	697,111043	35,231	0,155809	22,360000	51,570000
3,319859	699,412590	35,331	0,156725	22,360000	51,570000
3,321787	700,892156	35,431	0,157314	22,360000	51,570000
3,323852	705,213077	35,531	0,159034	22,360000	51,570000
3,325765	707,091365	35,632	0,159781	22,360000	51,570000
3,327802	708,995417	35,733	0,160539	22,360000	51,570000
3,329841	710,748567	35,834	0,161237	22,360000	51,570000
3,331763	713,142127	35,935	0,162189	22,360000	51,570000
3,333827	714,130958	36,035	0,162583	22,360000	51,570000
3,335790	716,773565	36,135	0,163635	22,360000	51,570000
3,337831	718,053156	36,235	0,164144	22,360000	51,570000
3,339849	719,865195	36,336	0,164865	22,360000	51,570000
3,341797	722,707777	36,436	0,165997	22,360000	51,570000
3,343831	724,735739	36,536	0,166804	22,360000	51,570000
3,345818	726,788238	36,636	0,167621	22,360000	51,570000
3,347796	728,591689	36,736	0,168338	22,360000	51,570000
3,349843	730,402501	36,837	0,169059	22,360000	51,570000
3,351841	732,007204	36,938	0,169698	22,360000	51,585000
3,353799	733,934565	37,038	0,170465	22,360000	51,585000
3,355794	735,073070	37,138	0,170918	22,360000	51,585000
3,357755	737,217582	37,239	0,171771	22,360000	51,585000
3,359839	739,486004	37,339	0,172674	22,360000	51,585000
3,361874	741,223206	37,439	0,173366	22,360000	51,585000
3,363813	745,270542	37,540	0,174977	22,360000	51,585000
3,365791	745,237418	37,640	0,174963	22,360000	51,585000
3,367815	747,572089	37,740	0,175893	22,360000	51,585000
3,369775	749,674888	37,840	0,176729	22,360000	51,585000
3,371867	751,204754	37,941	0,177338	22,360000	51,585000
3,373715	753,298966	38,041	0,178172	22,360000	51,585000
3,375713	755,268039	38,141	0,178956	22,360000	51,585000
3,377862	757,129152	38,241	0,179696	22,360000	51,585000
3,379859	758,709318	38,342	0,180325	22,360000	51,585000
3,381789	761,176488	38,443	0,181307	22,360000	51,585000
3,383804	763,171325	38,543	0,182101	22,360000	51,585000
3,385812	766,853064	38,643	0,183566	22,360000	51,585000
3,387833	766,961026	38,743	0,183609	22,360000	51,585000
3,389839	770,825563	38,844	0,185147	22,360000	51,585000
3,391812	770,917576	38,944	0,185184	22,360000	51,585000
3,393769	773,144286	39,044	0,186070	22,360000	51,585000
3,395852	775,280210	39,144	0,186920	22,360000	51,585000
3,397781	776,518088	39,245	0,187413	22,360000	51,585000
3,399831	778,829450	39,345	0,188333	22,360000	51,585000
3,401773	781,113821	39,445	0,189242	22,360000	51,585000
3,403837	783,033821	39,545	0,190006	22,360000	51,585000
3,405850	784,953822	39,646	0,190771	22,360000	51,585000
3,407752	786,649311	39,747	0,191445	22,360000	51,585000
3,409794	788,585260	39,847	0,192216	22,360000	51,585000
3,411755	793,064443	39,947	0,193999	22,360000	51,585000
3,413801	792,874284	40,047	0,193923	22,360000	51,585000
3,415798	794,935370	40,147	0,194743	22,360000	51,585000
3,417789	798,833032	40,247	0,196294	22,360000	51,585000
3,419806	800,735857	40,347	0,197052	22,360000	51,585000
3,421750	801,101455	40,447	0,197197	22,360000	51,585000
3,423774	802,847244	40,547	0,197892	22,360000	51,585000
3,425827	805,040829	40,648	0,198765	22,360000	51,585000
3,427849	807,068791	40,749	0,199572	22,360000	51,585000
3,429775	808,830530	40,849	0,200273	22,360000	51,585000
3,431757	812,711016	40,950	0,201818	22,360000	51,560000
3,433813	814,813815	41,050	0,202655	22,360000	51,560000
3,435760	816,517892	41,151	0,203333	22,360000	51,560000
3,437784	818,528679	41,251	0,204133	22,360000	51,560000
3,439829	820,605714	41,352	0,204960	22,360000	51,560000
3,441784	820,805689	41,452	0,205040	22,360000	51,560000
3,443813	823,839657	41,553	0,206247	22,360000	51,560000
3,445797	824,853025	41,654	0,206650	22,360000	51,560000
3,447806	827,429383	41,755	0,207676	22,360000	51,560000
3,449814	829,964029	41,855	0,208685	22,360000	51,560000
3,451760	832,606637	41,955	0,209736	22,360000	51,560000
3,453785	832,881448	42,055	0,209846	22,360000	51,560000
3,455770	835,391557	42,155	0,210845	22,360000	51,560000
3,457775	838,781309	42,255	0,212194	22,360000	51,560000
3,459760	840,734434	42,355	0,212971	22,360000	51,560000
3,461814	841,025194	42,455	0,213087	22,360000	51,560000
3,463782	843,643265	42,555	0,214129	22,360000	51,560000
3,465759	844,757233	42,656	0,214572	22,360000	51,560000
3,467810	847,574052	42,756	0,215693	22,360000	51,560000
3,469785	849,219241	42,856	0,216348	22,360000	51,560000
3,471797	851,480302	42,956	0,217248	22,360000	51,560000
3,473799	853,325465	43,056	0,217982	22,360000	51,560000
3,475737	856,998616	43,156	0,219444	22,360000	51,560000
3,477742	856,981440	43,257	0,219438	22,360000	51,560000
3,479775	858,968917	43,357	0,220229	22,360000	51,560000
3,481772	860,920815	43,457	0,221005	22,360000	51,560000
3,483792	864,685979	43,557	0,222504	22,360000	51,560000
3,485755	864,960790	43,657	0,222613	22,360000	51,560000
3,487828	866,738478	43,757	0,223321	22,360000	51,560000
3,489787	868,541928	43,857	0,224039	22,360000	51,560000
3,491749	873,005163	43,957	0,225815	22,360000	51,560000
3,493803	873,187961	44,057	0,225888	22,360000	51,560000
3,495762	875,207336	44,157	0,226691	22,360000	51,560000
3,497802	876,612064	44,258	0,227250	22,360000	51,560000
3,499788	880,483963	44,358	0,228792	22,360000	51,560000
3,501823	880,816436	44,458	0,228924	22,360000	51,560000
3,503774	882,529101	44,559	0,229605	22,360000	51,560000
3,505771	884,698149	44,660	0,230469	22,360000	51,560000
3,507792	886,651274	44,760	0,231246	22,360000	51,560000
3,509823	890,582061	44,860	0,232811	22,360000	51,560000
3,511735	892,394099	44,960	0,233532	22,350000	51,565000
3,513786	894,487084	45,060	0,234365	22,350000	51,565000
3,515764	896,158036	45,160	0,235030	22,350000	51,565000
3,517726	896,424260	45,261	0,235136	22,350000	51,565000
3,519811	898,019148	45,361	0,235771	22,350000	51,565000
3,521737	900,429884	45,461	0,236730	22,350000	51,565000
3,523781	902,191622	45,561	0,237431	22,350000	51,565000
3,525768	904,526294	45,661	0,238360	22,350000	51,565000
3,527755	906,472058	45,762	0,239135	22,350000	51,565000
3,529780	908,300045	45,863	0,239862	22,350000	51,565000
3,531743	912,463931	45,963	0,241520	22,350000	51,565000
3,533736	912,322845	46,064	0,241463	22,350000	51,565000
3,535704	914,217082	46,165	0,242217	22,350000	51,565000
3,537729	917,973657	46,266	0,243712	22,350000	51,565000
3,539787	919,469172	46,366	0,244308	22,350000	51,565000
3,541806	920,433466	46,466	0,244691	22,350000	51,565000
3,543802	922,170668	46,566	0,245383	22,350000	51,565000
3,545766	925,993493	46,667	0,246904	22,350000	51,565000
3,547702	926,557838	46,767	0,247129	22,350000	51,565000
3,549789	930,380663	46,867	0,248650	22,350000	51,565000
3,551776	930,415015	46,967	0,248664	22,350000	51,565000
3,553780	932,575475	47,067	0,249524	22,350000	51,565000
3,555763	934,453763	47,167	0,250271	22,350000	51,565000
3,557769	936,572511	47,267	0,251115	22,350000	51,565000
3,559755	938,475336	47,367	0,251872	22,350000	51,565000
3,561777	940,395336	47,467	0,252636	22,350000	51,565000
3,563714	942,498135	47,568	0,253473	22,350000	51,565000
3,565731	945,673190	47,668	0,254737	22,350000	51,565000
3,567732	948,307210	47,768	0,255785	22,350000	51,565000
3,569777	949,861613	47,869	0,256404	22,350000	51,565000
3,571802	951,971773	47,970	0,257244	22,350000	51,565000
3,573824	953,884412	48,070	0,258005	22,350000	51,565000
3,575728	954,589844	48,171	0,258286	22,350000	51,565000
3,577808	956,227672	48,271	0,258937	22,350000	51,565000
3,579725	958,919353	48,371	0,260009	22,350000	51,565000
3,581740	960,757155	48,471	0,260740	22,350000	51,565000
3,583726	962,675928	48,572	0,261504	22,350000	51,565000
3,585719	963,948159	48,672	0,262010	22,350000	51,565000
3,587787	968,335329	48,772	0,263756	22,350000	51,565000
3,589773	969,773182	48,873	0,264329	22,350000	51,565000
3,591722	972,474678	48,973	0,265404	22,360000	51,585000
3,593732	972,624352	49,073	0,265463	22,360000	51,585000
3,595787	975,474295	49,174	0,266598	22,360000	51,585000
3,597823	976,064404	49,275	0,266833	22,360000	51,585000
3,599803	978,217504	49,375	0,267689	22,360000	51,585000
3,601760	982,289377	49,475	0,269310	22,360000	51,585000
3,603759	983,652393	49,576	0,269853	22,360000	51,585000
3,605724	984,383588	49,676	0,270144	22,360000	51,585000
3,607737	986,460623	49,776	0,270970	22,360000	51,585000
3,609773	988,230950	49,877	0,271675	22,360000	51,585000
3,611773	991,190081	49,977	0,272853	22,360000	51,585000
3,613736	992,229212	50,078	0,273266	22,360000	51,585000
3,615767	993,982363	50,178	0,273964	22,360000	51,585000
3,617710	996,250785	50,279	0,274867	22,360000	51,585000
3,619787	998,012524	50,379	0,275568	22,360000	51,585000
3,621724	1000,066249	50,480	0,276385	22,360000	51,585000
3,623768	1002,043911	50,580	0,277172	22,360000	51,585000
3,625833	1006,065484	50,680	0,278773	22,360000	51,585000
3,627739	1007,005241	50,780	0,279147	22,360000	51,585000
3,629783	1007,794097	50,880	0,279461	22,360000	51,585000
3,631760	1010,220782	50,980	0,280427	22,360000	51,570000
3,633750	1013,628936	51,080	0,281783	22,360000	51,570000
3,635732	1014,276706	51,180	0,282041	22,360000	51,570000
3,637774	1016,213882	51,280	0,282812	22,360000	51,570000
3,639710	1020,310292	51,381	0,284442	22,360000	51,570000
3,641748	1022,080618	51,481	0,285147	22,360000	51,570000
3,643673	1023,709858	51,581	0,285795	22,360000	51,570000
3,645739	1026,086242	51,681	0,286741	22,360000	51,570000
3,647800	1028,089667	51,781	0,287539	22,360000	51,570000
3,649747	1030,232952	51,881	0,288392	22,360000	51,570000
3,651789	1031,654856	51,981	0,288958	22,360000	51,570000
3,653754	1033,033821	52,081	0,289506	22,360000	51,570000
3,655762	1034,081541	52,181	0,289923	22,360000	51,570000
3,657752	1035,801566	52,281	0,290608	22,360000	51,570000
3,659782	1039,142244	52,381	0,291938	22,360000	51,570000
3,661773	1040,313874	52,481	0,292404	22,360000	51,570000
3,663775	1043,821402	52,581	0,293800	22,360000	51,570000
3,665772	1044,752571	52,681	0,294170	22,360000	51,570000
3,667749	1046,023575	52,782	0,294676	22,360000	51,570000
3,669793	1047,917812	52,882	0,295430	22,360000	51,570000
3,671752	1050,004662	52,983	0,296261	22,350000	51,565000
3,673711	1052,015448	53,084	0,297061	22,350000	51,565000
3,675727	1054,168548	53,184	0,297918	22,350000	51,565000
3,677783	1056,569468	53,285	0,298874	22,350000	51,565000
3,679729	1057,833111	53,386	0,299376	22,350000	51,565000
3,681666	1060,343220	53,486	0,300375	22,350000	51,565000
3,683801	1064,115745	53,586	0,301877	22,350000	51,565000
3,685701	1064,240882	53,686	0,301927	22,350000	51,565000
3,687661	1066,234493	53,786	0,302720	22,350000	51,565000
3,689738	1068,794902	53,886	0,303739	22,350000	51,565000
3,691731	1070,622890	53,987	0,304467	22,350000	51,565000
3,693778	1072,809114	54,087	0,305337	22,350000	51,565000
3,695755	1075,068948	54,187	0,306236	22,350000	51,565000
3,697711	1077,836693	54,287	0,307338	22,350000	51,565000
3,699762	1078,002316	54,388	0,307404	22,350000	51,565000
3,701796	1079,772643	54,488	0,308108	22,350000	51,565000
3,703762	1083,961065	54,588	0,309775	22,350000	51,565000
3,705686	1084,253052	54,689	0,309892	22,350000	51,565000
3,707729	1087,900440	54,790	0,311343	22,350000	51,565000
3,709765	1087,667341	54,891	0,311250	22,350000	51,565000
3,711768	1089,844977	54,991	0,312117	22,340000	51,555000
3,713776	1091,773565	55,091	0,312885	22,340000	51,555000
3,715780	1093,568428	55,191	0,313599	22,340000	51,555000
3,717737	1095,688403	55,291	0,314443	22,340000	51,555000
3,719780	1097,516391	55,391	0,315170	22,340000	51,555000
3,721719	1101,762474	55,492	0,316860	22,340000	51,555000
3,723785	1103,724187	55,592	0,317641	22,340000	51,555000
3,725752	1103,765900	55,692	0,317658	22,340000	51,555000
3,727772	1105,727613	55,792	0,318438	22,340000	51,555000
3,729728	1108,128533	55,892	0,319394	22,340000	51,555000
3,731790	1111,395601	55,992	0,320694	22,340000	51,555000
3,733740	1111,502336	56,092	0,320737	22,340000	51,555000
3,735784	1113,406387	56,193	0,321495	22,340000	51,555000
3,737743	1116,896740	56,293	0,322884	22,340000	51,555000
3,739762	1119,098913	56,393	0,323760	22,340000	51,555000
3,741777	1120,728152	56,493	0,324409	22,340000	51,555000
3,743766	1121,467935	56,594	0,324703	22,340000	51,555000
3,745741	1123,295923	56,694	0,325431	22,340000	51,555000
3,747704	1127,542007	56,794	0,327121	22,340000	51,555000
3,749767	1129,594506	56,895	0,327937	22,340000	51,555000
3,751783	1131,789318	56,995	0,328811	22,350000	51,540000
3,753742	1131,523094	57,095	0,328705	22,350000	51,540000
3,755727	1133,716679	57,195	0,329578	22,350000	51,540000
3,757737	1135,387632	57,295	0,330243	22,350000	51,540000
3,759763	1137,365293	57,395	0,331030	22,350000	51,540000
3,761772	1140,324425	57,496	0,332208	22,350000	51,540000
3,763742	1142,260374	57,596	0,332979	22,350000	51,540000
3,765759	1145,477142	57,696	0,334259	22,350000	51,540000
3,767706	1147,362791	57,797	0,335009	22,350000	51,540000
3,769745	1147,030318	57,897	0,334877	22,350000	51,540000
3,771740	1151,277628	57,998	0,336567	22,350000	51,540000
3,773742	1151,368414	58,099	0,336604	22,350000	51,540000
3,775711	1153,455265	58,199	0,337434	22,350000	51,540000
3,777745	1156,362869	58,300	0,338591	22,350000	51,540000
3,779696	1157,601975	58,400	0,339084	22,350000	51,540000
3,781749	1160,211458	58,500	0,340123	22,350000	51,540000
3,783740	1162,155995	58,600	0,340897	22,350000	51,540000
3,785763	1164,657516	58,700	0,341893	22,350000	51,540000
3,787735	1166,161619	58,800	0,342491	22,350000	51,540000
3,789710	1169,004201	58,901	0,343623	22,350000	51,540000
3,791737	1171,405121	59,001	0,344578	22,360000	51,570000
3,793730	1173,126374	59,101	0,345263	22,360000	51,570000
3,795733	1175,236534	59,201	0,346103	22,360000	51,570000
3,797759	1176,500177	59,302	0,346606	22,360000	51,570000
3,799795	1177,239960	59,402	0,346900	22,360000	51,570000
3,801720	1180,338951	59,502	0,348134	22,360000	51,570000
3,803771	1183,431807	59,603	0,349365	22,360000	51,570000
3,805655	1184,237840	59,703	0,349686	22,360000	51,570000
3,807798	1186,372537	59,803	0,350535	22,360000	51,570000
3,809723	1188,193163	59,903	0,351260	22,360000	51,570000
3,811718	1189,032320	60,003	0,351594	22,360000	51,570000
3,813776	1192,149713	60,103	0,352834	22,360000	51,570000
3,815716	1194,284410	60,203	0,353684	22,360000	51,570000
3,817753	1195,274468	60,303	0,354078	22,360000	51,570000
3,819742	1196,877944	60,404	0,354716	22,360000	51,570000
3,821725	1199,029817	60,504	0,355573	22,360000	51,570000
3,823696	1201,132616	60,604	0,356410	22,360000	51,570000
3,825762	1203,144629	60,705	0,357210	22,360000	51,570000
3,827723	1205,870662	60,805	0,358295	22,360000	51,570000
3,829681	1207,150253	60,906	0,358805	22,360000	51,570000
3,831742	1209,176988	61,007	0,359611	22,360000	51,570000
3,833696	1211,239302	61,107	0,360432	22,360000	51,570000
3,835702	1213,532261	61,207	0,361345	22,360000	51,570000
3,837706	1215,351661	61,307	0,362069	22,360000	51,570000
3,839764	1217,247124	61,407	0,362823	22,360000	51,570000
3,841730	1220,646690	61,508	0,364176	22,360000	51,570000
3,843700	1223,247586	61,608	0,365211	22,360000	51,570000
3,845745	1225,258372	61,708	0,366012	22,360000	51,570000
3,847707	1227,094947	61,808	0,366743	22,360000	51,570000
3,849752	1229,281171	61,908	0,367613	22,360000	51,570000
3,851721	1229,479919	62,008	0,367692	22,360000	51,570000
3,853750	1231,250245	62,108	0,368396	22,360000	51,570000
3,855785	1234,881684	62,208	0,369842	22,360000	51,570000
3,857693	1235,206796	62,308	0,369971	22,360000	51,570000
3,859769	1237,250707	62,408	0,370785	22,360000	51,570000
3,861691	1239,236956	62,508	0,371575	22,360000	51,570000
3,863750	1241,315219	62,608	0,372402	22,360000	51,570000
3,865759	1243,051193	62,709	0,373093	22,360000	51,570000
3,867724	1245,030082	62,810	0,373881	22,360000	51,570000
3,869716	1247,239616	62,911	0,374760	22,360000	51,570000
3,871698	1248,894620	63,012	0,375419	22,360000	51,570000
3,873723	1251,055080	63,113	0,376279	22,360000	51,570000
3,875705	1253,149291	63,213	0,377112	22,360000	51,570000
3,877777	1255,010404	63,313	0,377853	22,360000	51,570000
3,879717	1257,212577	63,414	0,378729	22,360000	51,570000
3,881757	1259,714098	63,515	0,379725	22,360000	51,570000
3,883726	1262,831491	63,615	0,380966	22,360000	51,570000
3,885762	1262,847440	63,715	0,380972	22,360000	51,570000
3,887725	1264,883990	63,815	0,381783	22,360000	51,570000
3,889749	1267,119288	63,915	0,382672	22,360000	51,570000
3,891721	1269,055237	64,015	0,383443	22,360000	51,570000
3,893695	1270,775263	64,115	0,384127	22,360000	51,570000
3,895776	1273,011787	64,216	0,385018	22,360000	51,570000
3,897723	1275,047111	64,316	0,385828	22,360000	51,570000
3,899741	1278,297003	64,416	0,387121	22,360000	51,570000
3,901768	1279,626894	64,517	0,387650	22,360000	51,570000
3,903696	1281,097872	64,618	0,388236	22,360000	51,570000
3,905707	1284,704774	64,718	0,389671	22,360000	51,570000
3,907726	1286,491049	64,818	0,390382	22,360000	51,570000
3,909727	1288,054040	64,918	0,391004	22,360000	51,570000
3,911737	1288,975395	65,019	0,391371	22,360000	51,570000
3,913753	1290,919932	65,119	0,392145	22,360000	51,570000
3,915682	1293,546590	65,219	0,393190	22,360000	51,570000
3,917678	1296,181837	65,320	0,394239	22,360000	51,570000
3,919741	1297,950936	65,420	0,394943	22,360000	51,570000
3,921761	1299,647652	65,521	0,395619	22,360000	51,570000
3,923712	1301,733276	65,622	0,396449	22,360000	51,570000
3,925740	1302,979742	65,722	0,396945	22,360000	51,570000
3,927777	1304,974580	65,822	0,397739	22,360000	51,570000
3,929751	1306,877405	65,923	0,398496	22,360000	51,570000
3,931780	1309,163003	66,023	0,399406	22,360000	51,570000
3,933703	1311,048651	66,124	0,400156	22,360000	51,570000
3,935774	1313,076614	66,224	0,400963	22,360000	51,570000
3,937749	1314,805227	66,324	0,401651	22,360000	51,570000
3,939744	1317,033164	66,424	0,402538	22,360000	51,570000
3,941709	1319,326123	66,524	0,403451	22,360000	51,570000
3,943755	1322,625088	66,625	0,404764	22,360000	51,570000
3,945747	1322,924437	66,725	0,404883	22,360000	51,570000
3,947749	1324,827261	66,826	0,405640	22,360000	51,570000
3,949720	1326,755850	66,926	0,406408	22,350000	51,580000
3,951775	1328,767863	67,026	0,407208	22,350000	51,580000
3,953738	1330,902560	67,126	0,408058	22,350000	51,580000
3,955705	1332,815199	67,226	0,408819	22,350000	51,580000
3,957734	1334,925359	67,326	0,409659	22,350000	51,580000
3,959712	1336,878484	67,426	0,410437	22,350000	51,580000
3,961745	1338,781309	67,526	0,411194	22,350000	51,580000
3,963726	1340,709897	67,626	0,411961	22,350000	51,580000
3,965728	1342,929246	67,727	0,412845	22,350000	51,580000
3,967754	1346,884569	67,828	0,414419	22,350000	51,580000
3,969737	1348,629132	67,929	0,415113	22,350000	51,580000
3,971786	1348,721145	68,029	0,415150	22,350000	51,580000
3,973660	1350,557720	68,129	0,415881	22,350000	51,580000
3,975742	1352,643344	68,229	0,416711	22,350000	51,580000
3,977746	1354,787855	68,329	0,417564	22,350000	51,580000
3,979717	1356,541006	68,430	0,418262	22,350000	51,580000
3,981698	1358,718642	68,530	0,419129	22,350000	51,580000
3,983729	1362,691141	68,630	0,420710	22,350000	51,580000
3,985701	1364,478643	68,730	0,421421	22,350000	51,580000
3,987757	1366,298043	68,830	0,422146	22,350000	51,580000
3,989721	1368,425379	68,930	0,422992	22,350000	51,580000
3,991701	1370,361328	69,030	0,423763	22,350000	51,580000
3,993737	1370,594427	69,130	0,423855	22,350000	51,580000
3,995749	1372,646926	69,230	0,424672	22,350000	51,580000
3,997738	1374,708013	69,330	0,425493	22,350000	51,580000
3,999756	1376,685674	69,431	0,426280	22,350000	51,580000
4,001747	1378,822825	69,532	0,427130	22,350000	51,580000
4,003730	1381,613880	69,633	0,428241	22,350000	51,580000
4,005725	1383,002660	69,734	0,428794	22,350000	51,580000
4,007743	1385,877140	69,834	0,429938	22,350000	51,580000
4,009659	1387,972578	69,934	0,430772	22,350000	51,580000
4,011711	1389,958827	70,035	0,431563	22,350000	51,580000
4,013768	1392,094751	70,136	0,432413	22,350000	51,580000
4,015728	1393,631978	70,236	0,433024	22,350000	51,580000
4,017706	1395,517627	70,336	0,433775	22,350000	51,580000
4,019726	1396,457385	70,437	0,434149	22,350000	51,580000
4,021717	1398,584720	70,537	0,434996	22,350000	51,580000
4,023736	1400,487545	70,637	0,435753	22,350000	51,580000
4,025725	1402,980479	70,737	0,436745	22,350000	51,580000
4,027737	1404,477220	70,838	0,437341	22,350000	51,580000
4,029731	1407,102652	70,938	0,438386	22,350000	51,580000
4,031756	1408,540505	71,038	0,438958	22,350000	51,580000
4,033705	1411,059202	71,138	0,439960	22,350000	51,580000
4,035696	1412,737516	71,239	0,440628	22,350000	51,580000
4,037715	1414,424417	71,339	0,441300	22,350000	51,580000
4,039725	1417,000775	71,439	0,442325	22,350000	51,580000
4,041719	1418,522054	71,540	0,442931	22,350000	51,580000
4,043722	1420,873901	71,640	0,443867	22,350000	51,580000
4,045708	1422,510502	71,741	0,444518	22,350000	51,580000
4,047659	1424,414553	71,841	0,445276	22,350000	51,580000
4,049695	1427,763819	71,942	0,446609	22,350000	51,580000
4,051723	1428,286452	72,042	0,446817	22,350000	51,580000
4,053768	1430,190503	72,143	0,447575	22,350000	51,580000
4,055669	1432,142401	72,244	0,448352	22,350000	51,580000
4,057706	1434,262376	72,345	0,449195	22,350000	51,580000
4,059726	1436,290338	72,445	0,450002	22,350000	51,580000
4,061763	1440,346263	72,546	0,451617	22,350000	51,580000
4,063716	1442,298161	72,646	0,452394	22,350000	51,580000
4,065756	1444,077075	72,746	0,453102	22,350000	51,580000
4,067695	1446,977318	72,846	0,454256	22,350000	51,580000
4,069662	1448,307210	72,946	0,454785	22,350000	51,555000
4,071711	1450,218622	73,047	0,455546	22,350000	51,555000
4,073686	1452,504220	73,147	0,456456	22,350000	51,555000
4,075664	1452,204872	73,247	0,456336	22,350000	51,555000
4,077711	1454,382508	73,347	0,457203	22,350000	51,555000
4,079730	1456,285333	73,448	0,457960	22,350000	51,555000
4,081691	1458,022535	73,549	0,458652	22,350000	51,555000
4,083752	1461,296963	73,649	0,459955	22,350000	51,555000
4,085745	1463,922395	73,749	0,461000	22,350000	51,555000
4,087678	1465,551635	73,850	0,461648	22,350000	51,555000
4,089736	1468,061744	73,950	0,462647	22,350000	51,555000
4,091766	1469,374460	74,050	0,463170	22,350000	51,555000
4,093726	1471,768020	74,150	0,464123	22,350000	51,555000
4,095677	1473,272122	74,250	0,464721	22,350000	51,555000
4,097712	1475,266960	74,350	0,465515	22,350000	51,555000
4,099679	1476,306091	74,450	0,465929	22,350000	51,555000
4,101762	1478,308289	74,550	0,466726	22,350000	51,555000
4,103688	1480,261414	74,650	0,467503	22,350000	51,555000
4,105671	1481,840354	74,750	0,468131	22,350000	51,555000
4,107727	1483,876904	74,850	0,468942	22,350000	51,555000
4,109665	1485,962527	74,950	0,469772	22,350000	51,565000
4,111749	1488,754809	75,050	0,470883	22,350000	51,565000
4,113738	1491,073532	75,151	0,471806	22,350000	51,565000
4,115637	1493,292880	75,252	0,472689	22,350000	51,565000
4,117739	1494,854644	75,353	0,473311	22,350000	51,565000
4,119684	1497,239616	75,453	0,474260	22,350000	51,565000
4,119779	1497,930325	75,553	0,474535	22,350000	51,565000
4,119729	1498,071412	75,653	0,474591	22,350000	51,565000
4,119700	1497,721763	75,754	0,474452	22,350000	51,565000
4,119721	1497,738939	75,854	0,474459	22,350000	51,565000
4,119697	1497,705814	75,954	0,474446	22,350000	51,565000
4,119705	1497,622389	76,054	0,474413	22,350000	51,565000
4,119732	1497,772063	76,154	0,474472	22,350000	51,565000
4,119677	1497,331629	76,255	0,474297	22,350000	51,565000
4,119720	1497,838313	76,355	0,474499	22,350000	51,565000
4,119765	1497,763476	76,455	0,474469	22,350000	51,565000
4,119743	1497,789239	76,555	0,474479	22,350000	51,565000
4,119712	1497,754888	76,655	0,474465	22,350000	51,565000
4,119675	1497,672690	76,755	0,474433	22,350000	51,565000
4,119701	1497,589265	76,855	0,474399	22,350000	51,565000
4,119723	1497,481303	76,955	0,474356	22,350000	51,565000
4,119657	1497,422415	77,055	0,474333	22,350000	51,565000
4,119701	1497,505840	77,156	0,474366	22,350000	51,565000
4,119714	1497,289916	77,256	0,474280	22,350000	51,565000
4,119658	1497,107118	77,356	0,474208	22,350000	51,565000
4,119732	1497,197904	77,456	0,474244	22,350000	51,565000
4,119704	1497,406466	77,556	0,474327	22,350000	51,565000
4,119702	1497,340217	77,656	0,474300	22,350000	51,565000
4,119686	1497,406466	77,756	0,474327	22,350000	51,565000
4,119673	1496,966031	77,857	0,474151	22,350000	51,565000
4,119730	1496,940268	77,957	0,474141	22,350000	51,565000
4,119678	1497,065405	78,057	0,474191	22,350000	51,565000
4,119733	1497,124293	78,157	0,474214	22,350000	51,565000
4,119680	1497,223667	78,257	0,474254	22,350000	51,565000
4,119717	1497,115705	78,357	0,474211	22,350000	51,565000
4,119649	1497,065405	78,457	0,474191	22,350000	51,565000
4,119697	1497,115705	78,558	0,474211	22,350000	51,565000
4,119757	1497,256792	78,658	0,474267	22,350000	51,565000
4,119707	1496,957443	78,759	0,474148	22,350000	51,565000
4,119656	1497,215079	78,859	0,474250	22,350000	51,565000
4,119698	1497,340217	78,960	0,474300	22,360000	51,570000
4,119688	1497,256792	79,060	0,474267	22,360000	51,570000
4,119705	1497,265380	79,161	0,474271	22,360000	51,570000
4,119685	1496,650734	79,263	0,474026	22,360000	51,570000
4,119741	1497,131654	79,363	0,474217	22,360000	51,570000
4,119733	1496,766057	79,464	0,474072	22,360000	51,570000
4,119710	1497,056817	79,564	0,474187	22,360000	51,570000
4,119727	1496,874019	79,665	0,474115	22,360000	51,570000
4,119658	1497,023693	79,766	0,474174	22,360000	51,570000
4,119758	1496,849482	79,866	0,474105	22,360000	51,570000
4,119719	1497,007744	79,967	0,474168	22,360000	51,570000
4,119715	1496,642146	80,067	0,474022	22,360000	51,570000
4,119726	1496,990568	80,167	0,474161	22,360000	51,570000
4,119704	1496,450760	80,267	0,473946	22,360000	51,570000
4,119712	1496,534185	80,368	0,473979	22,360000	51,570000
4,119670	1496,292498	80,468	0,473883	22,360000	51,570000
4,119770	1496,417635	80,568	0,473933	22,360000	51,570000
4,119755	1496,475296	80,669	0,473956	22,360000	51,570000
4,119738	1496,574670	80,769	0,473996	22,360000	51,570000
4,119663	1496,715757	80,870	0,474052	22,360000	51,570000
4,119724	1496,391871	80,970	0,473923	22,350000	51,555000
4,119673	1496,458121	81,070	0,473949	22,350000	51,555000
4,119708	1496,699808	81,171	0,474045	22,350000	51,555000
4,119680	1496,458121	81,271	0,473949	22,350000	51,555000
4,119711	1496,442172	81,371	0,473943	22,350000	51,555000
4,119682	1496,409047	81,472	0,473930	22,350000	51,555000
4,119729	1496,400459	81,572	0,473926	22,350000	51,555000
4,119694	1496,217661	81,673	0,473854	22,350000	51,555000
4,119718	1496,126875	81,773	0,473817	22,350000	51,555000
4,119740	1495,960025	81,873	0,473751	22,350000	51,555000
4,119724	1496,234836	81,974	0,473860	22,350000	51,555000
4,119697	1496,267961	82,074	0,473874	22,350000	51,555000
4,119723	1496,159999	82,174	0,473831	22,350000	51,555000
4,119718	1495,985788	82,274	0,473761	22,350000	51,555000
4,119731	1495,860651	82,374	0,473711	22,350000	51,555000
4,119702	1496,275322	82,475	0,473876	22,350000	51,555000
4,119670	1496,034862	82,575	0,473781	22,350000	51,555000
4,119738	1495,968613	82,675	0,473754	22,350000	51,555000
4,119718	1495,860651	82,775	0,473711	22,350000	51,555000
4,119743	1495,935488	82,875	0,473741	22,350000	51,555000
4,119654	1496,017686	82,976	0,473774	22,340000	51,580000
4,119700	1495,993149	83,077	0,473764	22,340000	51,580000
4,119685	1495,902363	83,178	0,473728	22,340000	51,580000
4,119695	1496,159999	83,278	0,473831	22,340000	51,580000
4,119705	1495,926900	83,379	0,473738	22,340000	51,580000
4,119745	1495,719565	83,480	0,473655	22,340000	51,580000
4,119718	1495,777226	83,580	0,473678	22,340000	51,580000
4,119692	1495,910951	83,681	0,473731	22,340000	51,580000
4,119673	1495,653315	83,782	0,473629	22,340000	51,580000
4,119716	1495,794402	83,883	0,473685	22,340000	51,580000
4,119670	1495,561303	83,984	0,473592	22,340000	51,580000
4,119691	1495,461929	84,084	0,473553	22,340000	51,580000
4,119755	1495,669264	84,184	0,473635	22,340000	51,580000
4,119714	1495,618964	84,284	0,473615	22,340000	51,580000
4,119691	1495,545354	84,385	0,473586	22,340000	51,580000
4,119751	1495,686440	84,485	0,473642	22,340000	51,580000
4,119764	1495,686440	84,586	0,473642	22,340000	51,580000
4,119688	1495,585839	84,686	0,473602	22,340000	51,580000
4,119753	1495,411628	84,787	0,473533	22,340000	51,580000
4,119750	1495,627552	84,888	0,473619	22,340000	51,580000
4,119651	1495,495053	84,989	0,473566	22,360000	51,600000
4,119728	1495,387092	85,090	0,473523	22,360000	51,600000
4,119757	1495,577251	85,190	0,473599	22,360000	51,600000
4,119665	1495,353967	85,291	0,473510	22,360000	51,600000
4,119708	1495,353967	85,391	0,473510	22,360000	51,600000
4,119685	1495,387092	85,492	0,473523	22,360000	51,600000
4,117688	1495,511002	85,593	0,473572	22,360000	51,600000
4,115693	1493,467091	85,693	0,472759	22,360000	51,600000
4,113728	1491,331168	85,793	0,471909	22,360000	51,600000
4,111745	1489,221007	85,893	0,471069	22,360000	51,600000
4,109663	1487,283831	85,994	0,470298	22,360000	51,600000
4,107713	1485,165083	86,095	0,469455	22,360000	51,600000
4,105671	1480,851523	86,196	0,467738	22,360000	51,600000
4,103778	1478,773261	86,297	0,466911	22,360000	51,600000
4,101684	1479,180571	86,397	0,467073	22,360000	51,600000
4,099680	1475,799407	86,498	0,465727	22,360000	51,600000
4,097695	1474,725925	86,599	0,465300	22,360000	51,600000
4,095709	1472,897937	86,699	0,464572	22,360000	51,600000
4,093702	1470,097067	86,799	0,463458	22,360000	51,600000
4,091726	1469,275086	86,900	0,463130	22,360000	51,600000
4,089699	1465,011827	87,001	0,461434	22,360000	51,560000
4,087682	1463,391175	87,102	0,460789	22,360000	51,560000
4,085701	1460,773104	87,203	0,459747	22,360000	51,560000
4,083685	1459,900822	87,303	0,459399	22,360000	51,560000
4,081676	1458,188158	87,404	0,458718	22,360000	51,560000
4,079727	1455,935684	87,504	0,457821	22,360000	51,560000
4,077729	1453,883185	87,604	0,457004	22,360000	51,560000
4,075722	1451,174329	87,704	0,455926	22,360000	51,560000
4,073712	1449,271504	87,804	0,455169	22,360000	51,560000
4,071721	1448,223785	87,904	0,454752	22,360000	51,560000
4,069699	1444,334711	88,005	0,453204	22,360000	51,560000
4,067694	1442,980282	88,105	0,452665	22,360000	51,560000
4,065715	1441,185419	88,205	0,451951	22,360000	51,560000
4,063684	1438,725610	88,305	0,450972	22,360000	51,560000
4,061694	1438,142863	88,405	0,450740	22,360000	51,560000
4,059739	1435,434006	88,505	0,449662	22,360000	51,560000
4,057730	1433,621967	88,606	0,448940	22,360000	51,560000
4,055657	1431,146210	88,706	0,447955	22,360000	51,560000
4,053682	1428,204254	88,807	0,446784	22,360000	51,560000
4,051800	1427,846017	88,907	0,446642	22,360000	51,560000
4,049743	1425,328547	89,007	0,445640	22,350000	51,555000
4,047687	1423,225748	89,107	0,444803	22,350000	51,555000
4,045672	1421,746182	89,208	0,444214	22,350000	51,555000
4,043760	1419,294961	89,308	0,443238	22,350000	51,555000
4,041710	1417,616648	89,408	0,442570	22,350000	51,555000
4,039722	1415,621810	89,510	0,441776	22,350000	51,555000
4,037710	1411,781809	89,610	0,440248	22,350000	51,555000
4,035757	1411,731509	89,710	0,440228	22,350000	51,555000
4,033661	1409,637298	89,811	0,439395	22,350000	51,555000
4,031688	1407,593387	89,911	0,438581	22,350000	51,555000
4,029726	1404,003661	90,011	0,437152	22,350000	51,555000
4,027735	1403,521514	90,111	0,436960	22,350000	51,555000
4,025693	1401,435890	90,212	0,436130	22,350000	51,555000
4,023704	1399,582139	90,312	0,435393	22,350000	51,555000
4,021665	1395,543391	90,413	0,433785	22,350000	51,555000
4,019708	1393,473716	90,513	0,432961	22,350000	51,555000
4,017763	1391,496054	90,614	0,432174	22,350000	51,555000
4,015667	1389,111083	90,714	0,431225	22,350000	51,555000
4,013733	1387,573856	90,814	0,430613	22,350000	51,555000
4,011749	1385,279670	90,914	0,429700	22,350000	51,555000
4,009795	1385,213421	91,014	0,429674	22,350000	51,555000
4,007743	1383,176871	91,114	0,428863	22,350000	51,555000
4,005693	1379,129534	91,214	0,427252	22,350000	51,555000
4,003761	1379,038748	91,314	0,427216	22,350000	51,555000
4,001754	1377,084397	91,414	0,426438	22,350000	51,555000
3,999756	1375,123911	91,514	0,425658	22,350000	51,555000
3,997729	1370,918312	91,615	0,423984	22,350000	51,555000
3,995757	1368,824101	91,716	0,423151	22,350000	51,555000
3,993726	1366,771602	91,816	0,422334	22,350000	51,555000
3,991687	1364,935027	91,916	0,421603	22,350000	51,555000
3,989710	1364,644266	92,016	0,421487	22,350000	51,555000
3,987781	1361,385786	92,116	0,420190	22,350000	51,555000
3,985771	1360,720841	92,216	0,419926	22,350000	51,555000
3,983713	1358,710054	92,316	0,419125	22,350000	51,555000
3,981743	1355,976661	92,416	0,418038	22,350000	51,555000
3,979699	1354,854105	92,516	0,417591	22,350000	51,555000
3,977729	1351,821363	92,616	0,416384	22,350000	51,555000
3,975767	1349,884187	92,717	0,415613	22,350000	51,555000
3,973726	1347,682014	92,817	0,414736	22,350000	51,555000
3,971747	1344,931444	92,918	0,413642	22,350000	51,555000
3,969729	1342,878946	93,019	0,412825	22,360000	51,585000
3,967719	1341,349079	93,119	0,412216	22,360000	51,585000
3,965756	1338,981283	93,219	0,411273	22,360000	51,585000
3,963729	1337,302970	93,320	0,410605	22,360000	51,585000
3,961755	1335,059084	93,420	0,409712	22,360000	51,585000
3,959759	1333,445793	93,520	0,409070	22,360000	51,585000
3,957714	1331,974815	93,621	0,408485	22,360000	51,585000
3,955802	1330,105115	93,722	0,407741	22,360000	51,585000
3,953777	1327,471096	93,822	0,406692	22,360000	51,585000
3,951702	1324,137779	93,922	0,405366	22,360000	51,585000
3,949753	1324,254328	94,069	0,405412	22,360000	51,585000
3,947678	1322,102456	94,169	0,404556	22,360000	51,585000
3,945710	1318,037944	94,270	0,402938	22,360000	51,585000
3,943735	1316,218544	94,370	0,402214	22,360000	51,585000
3,941708	1316,176831	94,471	0,402197	22,360000	51,585000
3,939751	1312,204332	94,571	0,400616	22,360000	51,585000
3,937760	1311,123489	94,671	0,400186	22,360000	51,585000
3,935752	1309,727348	94,771	0,399630	22,360000	51,585000
3,933722	1308,073571	94,871	0,398972	22,360000	51,585000
3,931740	1306,054197	94,972	0,398168	22,360000	51,585000
3,929738	1302,513544	95,072	0,396759	22,360000	51,585000
3,927748	1301,882950	95,172	0,396508	22,360000	51,585000
3,925703	1299,854988	95,273	0,395701	22,360000	51,585000
3,923786	1295,931562	95,374	0,394140	22,360000	51,585000
3,921796	1294,402923	95,474	0,393531	22,360000	51,585000
3,919790	1291,718603	95,575	0,392463	22,360000	51,585000
3,917747	1291,976239	95,675	0,392565	22,360000	51,585000
3,915718	1287,554717	95,775	0,390806	22,360000	51,585000
3,913799	1286,466512	95,875	0,390373	22,360000	51,585000
3,911785	1283,632518	95,975	0,389245	22,360000	51,585000
3,909753	1281,778767	96,075	0,388507	22,360000	51,585000
3,907735	1279,677195	96,175	0,387670	22,360000	51,585000
3,905756	1277,955942	96,275	0,386985	22,360000	51,585000
3,903743	1275,629858	96,376	0,386060	22,360000	51,585000
3,901807	1275,621270	96,476	0,386056	22,360000	51,585000
3,899801	1273,650970	96,576	0,385272	22,360000	51,585000
3,897773	1270,767902	96,676	0,384125	22,360000	51,585000
3,895696	1268,706815	96,776	0,383304	22,360000	51,585000
3,893768	1266,229831	96,876	0,382318	22,360000	51,585000
3,891778	1263,620348	96,976	0,381280	22,350000	51,555000
3,889778	1262,622929	97,077	0,380883	22,350000	51,555000
3,887709	1261,609561	97,177	0,380479	22,350000	51,555000
3,885745	1259,623312	97,278	0,379689	22,350000	51,555000
3,883719	1256,256870	97,378	0,378349	22,350000	51,555000
3,881767	1254,444832	97,478	0,377628	22,350000	51,555000
3,879735	1251,403502	97,578	0,376417	22,350000	51,555000
3,877693	1250,165623	97,678	0,375925	22,350000	51,555000
3,875755	1248,362172	97,779	0,375207	22,350000	51,555000
3,873700	1246,391871	97,880	0,374423	22,350000	51,555000
3,871744	1243,101494	97,980	0,373113	22,350000	51,555000
3,869763	1242,760433	98,080	0,372978	22,350000	51,555000
3,867752	1239,186656	98,181	0,371555	22,350000	51,555000
3,865758	1238,879947	98,282	0,371433	22,350000	51,555000
3,863734	1235,896278	98,382	0,370246	22,350000	51,555000
3,861766	1234,898860	98,483	0,369849	22,350000	51,555000
3,859732	1232,888073	98,583	0,369048	22,350000	51,555000
3,857815	1230,428264	98,683	0,368069	22,350000	51,555000
3,855714	1227,202909	98,783	0,366786	22,350000	51,555000
3,853772	1226,762474	98,883	0,366610	22,350000	51,555000
3,851736	1224,950436	98,983	0,365889	22,350000	51,595000
3,849743	1223,047611	99,085	0,365132	22,350000	51,595000
3,847766	1219,000275	99,185	0,363521	22,350000	51,595000
3,845778	1218,742639	99,285	0,363418	22,350000	51,595000
3,843814	1216,672964	99,385	0,362595	22,350000	51,595000
3,841731	1212,891852	99,485	0,361090	22,350000	51,595000
3,839739	1210,689679	99,585	0,360213	22,350000	51,595000
3,837751	1210,731391	99,685	0,360230	22,350000	51,595000
3,835753	1208,038483	99,785	0,359158	22,350000	51,595000
3,833695	1206,858266	99,885	0,358688	22,350000	51,595000
3,831777	1202,695607	99,985	0,357032	22,350000	51,595000
3,829705	1200,716718	100,085	0,356244	22,350000	51,595000
3,827745	1198,456884	100,186	0,355345	22,350000	51,595000
3,825711	1198,448296	100,286	0,355341	22,350000	51,595000
3,823767	1196,895120	100,387	0,354723	22,350000	51,595000
3,821692	1194,292998	100,487	0,353687	22,350000	51,595000
3,819756	1192,631860	100,587	0,353026	22,350000	51,595000
3,817778	1190,021151	100,687	0,351987	22,350000	51,595000
3,815715	1188,800448	100,788	0,351501	22,350000	51,595000
3,813802	1185,559143	100,888	0,350211	22,350000	51,595000
3,811783	1184,603437	100,988	0,349831	22,350000	51,555000
3,809766	1180,448139	101,088	0,348177	22,350000	51,555000
3,807761	1178,171129	101,188	0,347271	22,350000	51,555000
3,805734	1176,500177	101,288	0,346606	22,350000	51,555000
3,803740	1174,496751	101,388	0,345809	22,350000	51,555000
3,801725	1172,569390	101,489	0,345042	22,350000	51,555000
3,799791	1171,746182	101,590	0,344714	22,350000	51,555000
3,797730	1170,408929	101,691	0,344182	22,350000	51,555000
3,795819	1168,363792	101,792	0,343368	22,350000	51,555000
3,793772	1165,205912	101,892	0,342111	22,350000	51,555000
3,791794	1162,446755	101,993	0,341013	22,350000	51,555000
3,789746	1160,884991	102,094	0,340391	22,350000	51,555000
3,787749	1160,161157	102,195	0,340103	22,350000	51,555000
3,785726	1158,158959	102,295	0,339306	22,350000	51,555000
3,783762	1156,338332	102,396	0,338582	22,350000	51,555000
3,781759	1154,210996	102,497	0,337735	22,350000	51,555000
3,779767	1151,610101	102,597	0,336700	22,350000	51,555000
3,777786	1149,656976	102,697	0,335922	22,350000	51,555000
3,775730	1145,908988	102,798	0,334431	22,350000	51,555000
3,773775	1145,667301	102,898	0,334334	22,350000	51,555000
3,771765	1144,147250	102,999	0,333729	22,350000	51,555000
3,769744	1140,066789	103,100	0,332105	22,350000	51,555000
3,767757	1137,946814	103,200	0,331262	22,350000	51,555000
3,765795	1137,847440	103,300	0,331222	22,350000	51,555000
3,763774	1136,094290	103,401	0,330524	22,350000	51,555000
3,761789	1132,205216	103,502	0,328977	22,350000	51,555000
3,759761	1129,935567	103,603	0,328073	22,350000	51,555000
3,757768	1130,409126	103,704	0,328262	22,350000	51,555000
3,755757	1127,783694	103,804	0,327217	22,350000	51,555000
3,753776	1126,295540	103,905	0,326625	22,350000	51,555000
3,751795	1123,802607	104,005	0,325632	22,350000	51,555000
3,749778	1121,874019	104,105	0,324865	22,350000	51,555000
3,747714	1118,009481	104,205	0,323327	22,350000	51,555000
3,745733	1115,866196	104,305	0,322474	22,350000	51,555000
3,743762	1113,771985	104,405	0,321640	22,350000	51,555000
3,741772	1113,846822	104,505	0,321670	22,350000	51,555000
3,739795	1110,073070	104,605	0,320168	22,350000	51,555000
3,737768	1109,874323	104,705	0,320089	22,350000	51,555000
3,735708	1105,785274	104,805	0,318461	22,350000	51,555000
3,733757	1103,673887	104,905	0,317621	22,350000	51,555000
3,731725	1101,663101	105,005	0,316821	22,350000	51,540000
3,729813	1099,469516	105,105	0,315948	22,350000	51,540000
3,727796	1097,765439	105,205	0,315270	22,350000	51,540000
3,725741	1097,582640	105,305	0,315197	22,350000	51,540000
3,723746	1095,779189	105,405	0,314479	22,350000	51,540000
3,721767	1093,343917	105,506	0,313510	22,350000	51,540000
3,719759	1089,545629	105,606	0,311998	22,350000	51,540000
3,717777	1089,770140	105,706	0,312087	22,350000	51,540000
3,715762	1087,294382	105,807	0,311102	22,350000	51,540000
3,713813	1085,257832	105,907	0,310292	22,350000	51,540000
3,711776	1081,518432	106,008	0,308803	22,350000	51,540000
3,709718	1079,565307	106,108	0,308026	22,350000	51,540000
3,707791	1078,144629	106,208	0,307460	22,350000	51,540000
3,705767	1075,575632	106,308	0,306438	22,350000	51,540000
3,703770	1073,705932	106,408	0,305694	22,350000	51,540000
3,701825	1071,378622	106,508	0,304768	22,350000	51,540000
3,699779	1071,503759	106,608	0,304817	22,350000	51,540000
3,697805	1069,467209	106,709	0,304007	22,350000	51,540000
3,695775	1065,711860	106,809	0,302512	22,350000	51,540000
3,693788	1064,439630	106,910	0,302006	22,350000	51,540000
3,691791	1062,803029	107,011	0,301354	22,350000	51,540000
3,689764	1059,403463	107,112	0,300001	22,350000	51,540000
3,687823	1059,678274	107,213	0,300111	22,350000	51,540000
3,685767	1056,311833	107,313	0,298771	22,350000	51,540000
3,683771	1054,275283	107,413	0,297960	22,350000	51,540000
3,681833	1052,730694	107,514	0,297346	22,350000	51,540000
3,679784	1050,868355	107,614	0,296604	22,350000	51,540000
3,677759	1047,144904	107,715	0,295123	22,350000	51,540000
3,675768	1047,062706	107,815	0,295090	22,350000	51,540000
3,673801	1045,017568	107,915	0,294276	22,350000	51,540000
3,671734	1041,527216	108,016	0,292887	22,350000	51,540000
3,669732	1040,995996	108,117	0,292675	22,350000	51,540000
3,667789	1039,457542	108,217	0,292063	22,350000	51,540000
3,665732	1037,072570	108,317	0,291114	22,350000	51,540000
3,663793	1032,917272	108,417	0,289460	22,350000	51,540000
3,661774	1033,308633	108,518	0,289616	22,350000	51,540000
3,659724	1031,130997	108,618	0,288749	22,350000	51,540000
3,657817	1028,977897	108,719	0,287892	22,350000	51,540000
3,655830	1025,288798	108,820	0,286424	22,350000	51,540000
3,653776	1022,869474	108,920	0,285461	22,350000	51,540000
3,651760	1021,257410	109,020	0,284819	22,350000	51,565000
3,649762	1018,971812	109,120	0,283910	22,350000	51,565000
3,647732	1016,936489	109,220	0,283100	22,350000	51,565000
3,645779	1017,284911	109,320	0,283238	22,350000	51,565000
3,643770	1014,850866	109,420	0,282270	22,350000	51,565000
3,641802	1013,155376	109,521	0,281595	22,350000	51,565000
3,639739	1009,465050	109,621	0,280126	22,350000	51,565000
3,637747	1006,839618	109,722	0,279081	22,350000	51,565000
3,635766	1005,534263	109,823	0,278562	22,350000	51,565000
3,633763	1005,018991	109,923	0,278356	22,350000	51,565000
3,631766	1002,010786	110,024	0,277159	22,350000	51,565000
3,629743	1001,071029	110,124	0,276785	22,350000	51,565000
3,627827	998,760894	110,225	0,275866	22,350000	51,565000
3,625745	995,178529	110,325	0,274440	22,350000	51,565000
3,623790	994,796983	110,426	0,274288	22,350000	51,565000
3,621755	992,469673	110,527	0,273362	22,350000	51,565000
3,619834	989,494592	110,627	0,272178	22,350000	51,565000
3,617779	988,032202	110,728	0,271596	22,350000	51,565000
3,615766	985,381007	110,829	0,270541	22,350000	51,565000
3,613763	985,081658	110,930	0,270421	22,350000	51,595000
3,611774	982,139702	111,030	0,269250	22,350000	51,595000
3,609787	980,120328	111,132	0,268447	22,350000	51,595000
3,607777	976,903561	111,232	0,267167	22,350000	51,595000
3,605824	976,388289	111,332	0,266961	22,350000	51,595000
3,603764	974,360327	111,432	0,266154	22,350000	51,595000
3,601755	970,754652	111,532	0,264719	22,350000	51,595000
3,599757	970,380467	111,632	0,264570	22,350000	51,595000
3,597778	968,734051	111,732	0,263915	22,350000	51,595000
3,595838	966,399380	111,832	0,262986	22,350000	51,595000
3,593811	964,571392	111,934	0,262258	22,350000	51,595000
3,591769	960,881065	112,034	0,260790	22,350000	51,595000
3,589693	958,412669	112,134	0,259807	22,350000	51,595000
3,587760	958,637180	112,234	0,259896	22,350000	51,595000
3,585772	956,784656	112,334	0,259159	22,350000	51,595000
3,583755	954,989793	112,434	0,258445	22,350000	51,595000
3,581750	952,695607	112,535	0,257532	22,350000	51,595000
3,579776	950,575632	112,636	0,256688	22,350000	51,595000
3,577723	948,805306	112,736	0,255983	22,350000	51,595000
3,575779	946,454686	112,836	0,255048	22,350000	51,595000
3,573755	944,724845	112,936	0,254359	22,350000	51,580000
3,571763	940,611259	113,036	0,252722	22,350000	51,580000
3,569757	938,600473	113,136	0,251922	22,350000	51,580000
3,567797	938,085201	113,236	0,251717	22,350000	51,580000
3,565770	936,215501	113,336	0,250973	22,350000	51,580000
3,563800	934,354389	113,436	0,250232	22,350000	51,580000
3,561793	931,403845	113,537	0,249058	22,350000	51,580000
3,559756	930,206452	113,637	0,248581	22,350000	51,580000
3,557835	928,444714	113,737	0,247880	22,350000	51,580000
3,555788	926,300202	113,838	0,247026	22,350000	51,580000
3,553808	924,240342	113,939	0,246207	22,350000	51,580000
3,551755	922,627051	114,039	0,245564	22,350000	51,580000
3,549818	920,675153	114,139	0,244788	22,350000	51,580000
3,547771	918,064443	114,240	0,243749	22,350000	51,580000
3,545777	916,361593	114,340	0,243071	22,350000	51,580000
3,543771	913,868660	114,440	0,242079	22,350000	51,580000
3,541769	912,422219	114,540	0,241503	22,350000	51,580000
3,539817	910,178333	114,640	0,240610	22,350000	51,580000
3,537751	908,416595	114,740	0,239909	22,350000	51,580000
3,535859	904,236760	114,840	0,238245	22,350000	51,580000
3,533769	902,158498	114,940	0,237418	22,350000	51,580000
3,531779	900,429884	115,040	0,236730	22,350000	51,580000
3,529789	898,177410	115,141	0,235833	22,350000	51,580000
3,527809	896,490509	115,241	0,235162	22,350000	51,580000
3,525806	895,825563	115,341	0,234897	22,350000	51,580000
3,523817	894,197550	115,441	0,234250	22,350000	51,580000
3,521863	892,077575	115,541	0,233406	22,350000	51,580000
3,519762	889,725728	115,641	0,232470	22,350000	51,580000
3,517802	888,054776	115,741	0,231805	22,350000	51,580000
3,515786	886,110239	115,841	0,231031	22,350000	51,580000
3,513768	884,207414	115,941	0,230273	22,350000	51,580000
3,511807	880,367413	116,041	0,228745	22,350000	51,580000
3,509837	878,024154	116,142	0,227813	22,350000	51,580000
3,507803	876,378965	116,243	0,227158	22,350000	51,580000
3,505834	874,476140	116,344	0,226400	22,350000	51,580000
3,503788	874,076192	116,444	0,226241	22,350000	51,580000
3,501793	872,015105	116,544	0,225421	22,350000	51,580000
3,499830	869,689021	116,644	0,224495	22,350000	51,580000
3,497782	867,353123	116,744	0,223565	22,350000	51,580000
3,495803	865,700573	116,844	0,222908	22,350000	51,580000
3,493806	862,101033	116,944	0,221475	22,350000	51,595000
3,491814	860,422719	117,044	0,220807	22,350000	51,595000
3,489762	858,776303	117,144	0,220152	22,350000	51,595000
3,487793	858,011984	117,244	0,219848	22,350000	51,595000
3,485792	855,743562	117,344	0,218945	22,350000	51,595000
3,483761	852,810194	117,444	0,217777	22,350000	51,595000
3,481785	850,931906	117,544	0,217030	22,350000	51,595000
3,479791	847,981362	117,644	0,215855	22,350000	51,595000
3,477850	847,042831	117,744	0,215482	22,350000	51,595000
3,475774	844,873783	117,844	0,214619	22,350000	51,595000
3,473765	843,734051	117,944	0,214165	22,350000	51,595000
3,471772	841,789514	118,044	0,213391	22,350000	51,595000
3,469746	839,895277	118,144	0,212637	22,350000	51,595000
3,467813	837,019571	118,245	0,211493	22,350000	51,595000
3,465829	835,647966	118,345	0,210947	22,350000	51,595000
3,463782	833,147672	118,445	0,209952	22,350000	51,595000
3,461817	831,135659	118,546	0,209151	22,350000	51,595000
3,459759	828,900361	118,646	0,208261	22,350000	51,595000
3,457769	827,312834	118,746	0,207629	22,350000	51,595000
3,455783	823,822482	118,846	0,206240	22,350000	51,595000
3,453801	823,249549	118,946	0,206012	22,350000	51,565000
3,451751	821,860769	119,046	0,205459	22,350000	51,565000
3,449740	819,517509	119,146	0,204527	22,350000	51,565000
3,447858	817,489547	119,247	0,203720	22,350000	51,565000
3,445821	815,196588	119,347	0,202807	22,350000	51,565000
3,443846	813,177214	119,447	0,202003	22,350000	51,565000
3,441782	811,281751	119,548	0,201249	22,350000	51,565000
3,439773	809,627974	119,649	0,200591	22,350000	51,565000
3,437826	807,725149	119,749	0,199833	22,350000	51,565000
3,435813	805,514388	119,850	0,198954	22,350000	51,565000
3,433838	803,869200	119,950	0,198299	22,350000	51,565000
3,431808	801,790937	120,050	0,197472	22,350000	51,565000
3,429860	799,780151	120,150	0,196671	22,350000	51,565000
3,427761	797,835614	120,250	0,195897	22,350000	51,565000
3,425839	793,405504	120,350	0,194134	22,350000	51,565000
3,423863	793,588303	120,450	0,194207	22,350000	51,565000
3,421769	791,768903	120,551	0,193483	22,350000	51,565000
3,419809	789,857491	120,651	0,192722	22,350000	51,565000
3,417807	787,779228	120,751	0,191895	22,350000	51,565000
3,415793	785,594231	120,851	0,191025	22,350000	51,565000
3,413852	783,674231	120,951	0,190261	22,350000	51,565000
3,411831	781,538307	121,051	0,189411	22,350000	51,565000
3,409760	779,710319	121,152	0,188684	22,350000	51,565000
3,407874	777,581756	121,252	0,187836	22,350000	51,565000
3,405792	775,662983	121,353	0,187073	22,350000	51,565000
3,403864	773,868120	121,453	0,186358	22,350000	51,565000
3,401846	771,589883	121,553	0,185452	22,350000	51,565000
3,399791	769,462547	121,653	0,184605	22,350000	51,565000
3,397851	767,460349	121,753	0,183808	22,350000	51,565000
3,395852	765,415211	121,853	0,182994	22,350000	51,565000
3,393852	761,459887	121,953	0,181420	22,350000	51,565000
3,391775	759,182877	122,054	0,180514	22,350000	51,565000
3,389780	757,304589	122,154	0,179766	22,350000	51,565000
3,387803	755,201790	122,254	0,178929	22,350000	51,565000
3,385819	753,041330	122,354	0,178069	22,350000	51,565000
3,383807	751,121329	122,454	0,177305	22,350000	51,565000
3,381825	749,309291	122,554	0,176584	22,350000	51,565000
3,379831	747,281329	122,654	0,175777	22,350000	51,565000
3,377847	745,578478	122,754	0,175099	22,350000	51,565000
3,375836	745,362555	122,854	0,175013	22,350000	51,565000
3,373839	743,301468	122,955	0,174193	22,350000	51,580000
3,371811	740,135001	123,055	0,172933	22,350000	51,580000
3,369805	739,578017	123,155	0,172711	22,350000	51,580000
3,367812	737,276470	123,255	0,171795	22,350000	51,580000
3,365842	735,372419	123,355	0,171037	22,350000	51,580000
3,363837	731,608482	123,455	0,169539	22,350000	51,580000
3,361841	729,405082	123,556	0,168662	22,350000	51,580000
3,359813	728,316877	123,656	0,168229	22,350000	51,580000
3,357801	725,266960	123,757	0,167015	22,350000	51,580000
3,355867	724,419215	123,857	0,166678	22,350000	51,580000
3,353812	723,205873	123,958	0,166195	22,350000	51,580000
3,351801	719,740058	124,058	0,164815	22,350000	51,580000
3,349846	719,175713	124,158	0,164591	22,350000	51,580000
3,347874	717,048377	124,258	0,163744	22,350000	51,580000
3,345812	714,521092	124,358	0,162738	22,350000	51,580000
3,343854	711,512887	124,458	0,161541	22,350000	51,580000
3,341824	709,359787	124,559	0,160684	22,350000	51,580000
3,339811	707,690062	124,660	0,160020	22,350000	51,580000
3,337860	705,653512	124,760	0,159209	22,350000	51,580000
3,335800	704,765281	124,860	0,158855	22,350000	51,580000
3,333820	702,620770	124,960	0,158002	22,350000	51,580000
3,331823	700,775607	125,061	0,157268	22,350000	51,580000
3,329851	698,107235	125,161	0,156206	22,350000	51,580000
3,327856	695,938187	125,261	0,155342	22,350000	51,580000
3,325870	694,127375	125,361	0,154622	22,350000	51,580000
3,323833	692,456423	125,462	0,153957	22,350000	51,580000
3,321849	690,661560	125,562	0,153242	22,350000	51,580000
3,319842	688,957483	125,663	0,152564	22,350000	51,580000
3,317828	687,054658	125,764	0,151807	22,350000	51,580000
3,315842	685,276971	125,864	0,151099	22,350000	51,580000
3,313844	683,139820	125,964	0,150249	22,350000	51,580000
3,311853	679,151372	126,064	0,148661	22,350000	51,580000
3,309860	678,843436	126,165	0,148539	22,350000	51,580000
3,307776	676,973736	126,265	0,147794	22,350000	51,580000
3,305805	674,780151	126,365	0,146921	22,350000	51,580000
3,303805	673,184035	126,465	0,146286	22,350000	51,580000
3,301850	671,089824	126,565	0,145453	22,350000	51,580000
3,299831	669,195587	126,665	0,144699	22,350000	51,580000
3,297890	666,943114	126,765	0,143802	22,350000	51,580000
3,295834	663,477299	126,865	0,142423	22,350000	51,580000
3,293828	663,045452	126,965	0,142251	22,360000	51,560000
3,291927	661,125451	127,066	0,141487	22,360000	51,560000
3,289795	659,163739	127,166	0,140706	22,360000	51,560000
3,287838	657,227789	127,267	0,139936	22,360000	51,560000
3,285851	655,199827	127,367	0,139128	22,360000	51,560000
3,283847	651,335290	127,467	0,137590	22,360000	51,560000
3,281829	648,776107	127,567	0,136572	22,360000	51,560000
3,279786	649,099992	127,667	0,136701	22,360000	51,560000
3,277869	647,038905	127,767	0,135880	22,360000	51,560000
3,275837	645,169205	127,868	0,135136	22,360000	51,560000
3,273855	643,174368	127,968	0,134342	22,360000	51,560000
3,271859	640,963607	128,068	0,133462	22,360000	51,560000
3,269800	638,961409	128,169	0,132666	22,360000	51,560000
3,267864	637,032820	128,269	0,131898	22,360000	51,560000
3,265794	632,919235	128,370	0,130261	22,360000	51,560000
3,263833	632,080078	128,471	0,129927	22,360000	51,560000
3,261815	628,955323	128,571	0,128683	22,360000	51,560000
3,259878	626,702850	128,671	0,127787	22,360000	51,560000
3,257870	625,090786	128,772	0,127145	22,360000	51,560000
3,255873	625,439208	128,873	0,127284	22,360000	51,560000
3,253849	623,071412	128,973	0,126341	22,350000	51,565000
3,251827	620,877827	129,073	0,125468	22,350000	51,565000
3,249785	619,114861	129,174	0,124767	22,350000	51,565000
3,247872	615,899321	129,274	0,123487	22,350000	51,565000
3,245834	613,347499	129,374	0,122471	22,350000	51,565000
3,243893	611,103614	129,474	0,121578	22,350000	51,565000
3,241813	610,073070	129,575	0,121168	22,350000	51,565000
3,239817	608,535843	129,676	0,120556	22,350000	51,565000
3,237881	606,815817	129,776	0,119872	22,350000	51,565000
3,235852	604,796443	129,877	0,119068	22,350000	51,565000
3,233831	602,926743	129,977	0,118324	22,350000	51,565000
3,231817	600,333209	130,077	0,117292	22,350000	51,565000
3,229882	597,989950	130,177	0,116359	22,350000	51,565000
3,227860	595,613566	130,277	0,115413	22,350000	51,565000
3,225840	593,918077	130,377	0,114738	22,350000	51,565000
3,223833	592,172287	130,477	0,114043	22,350000	51,565000
3,221848	590,617884	130,577	0,113425	22,350000	51,565000
3,219823	589,155494	130,677	0,112843	22,350000	51,565000
3,217866	587,177833	130,777	0,112056	22,350000	51,565000
3,215817	582,890036	130,877	0,110349	22,350000	51,565000
3,213851	582,864273	130,977	0,110339	22,350000	51,555000
3,211914	578,775224	131,077	0,108711	22,350000	51,555000
3,209921	578,726150	131,178	0,108692	22,350000	51,555000
3,207812	576,548514	131,278	0,107825	22,350000	51,555000
3,205920	574,346341	131,378	0,106949	22,350000	51,555000
3,203823	572,534302	131,478	0,106228	22,350000	51,555000
3,201874	570,391018	131,578	0,105375	22,350000	51,555000
3,199852	568,478378	131,678	0,104613	22,350000	51,555000
3,197899	566,526480	131,779	0,103836	22,350000	51,555000
3,195893	564,871477	131,879	0,103178	22,350000	51,555000
3,193857	562,810390	131,979	0,102357	22,350000	51,555000
3,191904	560,367757	132,079	0,101385	22,350000	51,555000
3,189861	558,780229	132,179	0,100753	22,350000	51,555000
3,187925	557,001315	132,279	0,100045	22,350000	51,555000
3,185844	555,181915	132,379	0,099321	22,350000	51,555000
3,183890	553,378465	132,479	0,098604	22,350000	51,555000
3,181853	550,436509	132,579	0,097433	22,350000	51,555000
3,179835	548,948355	132,680	0,096840	22,350000	51,555000
3,177886	546,954744	132,781	0,096047	22,350000	51,555000
3,175834	545,134118	132,881	0,095322	22,350000	51,555000
3,173847	542,782271	132,982	0,094386	22,350000	51,555000
3,171919	539,091944	133,082	0,092917	22,350000	51,555000
3,169882	539,217082	133,182	0,092967	22,350000	51,555000
3,167830	535,070371	133,283	0,091317	22,350000	51,555000
3,165936	532,925860	133,383	0,090463	22,350000	51,555000
3,163893	533,266921	133,483	0,090599	22,350000	51,555000
3,161873	531,230371	133,584	0,089789	22,350000	51,555000
3,159873	527,158498	133,684	0,088168	22,350000	51,555000
3,157866	525,155072	133,786	0,087371	22,350000	51,555000
3,155901	522,978663	133,886	0,086504	22,350000	51,555000
3,153894	523,093986	133,986	0,086550	22,350000	51,555000
3,151840	519,895621	134,086	0,085277	22,350000	51,555000
3,149875	519,246624	134,186	0,085019	22,350000	51,555000
3,147906	517,293499	134,287	0,084242	22,350000	51,555000
3,145838	515,249588	134,388	0,083428	22,350000	51,555000
3,143905	510,920079	134,488	0,081705	22,350000	51,555000
3,141879	509,515350	134,588	0,081146	22,350000	51,555000
3,139845	507,188040	134,688	0,080220	22,350000	51,555000
3,137860	505,052116	134,788	0,079370	22,350000	51,555000
3,135865	503,107579	134,888	0,078596	22,350000	51,555000
3,133903	501,295540	134,989	0,077875	22,350000	51,555000
3,131875	499,558339	135,089	0,077183	22,350000	51,555000
3,129867	497,580677	135,190	0,076396	22,350000	51,555000
3,127828	496,966031	135,290	0,076151	22,350000	51,555000
3,125844	493,533341	135,391	0,074785	22,350000	51,555000
3,123850	492,427960	135,492	0,074345	22,350000	51,555000
3,121820	491,148369	135,592	0,073836	22,350000	51,555000
3,119816	487,574592	135,692	0,072414	22,350000	51,555000
3,117838	486,876521	135,792	0,072136	22,350000	51,555000
3,115812	483,702693	135,892	0,070873	22,350000	51,555000
3,113923	482,172827	135,992	0,070264	22,350000	51,555000
3,111876	481,101798	136,092	0,069837	22,350000	51,555000
3,109847	478,224865	136,193	0,068692	22,350000	51,555000
3,107892	476,572315	136,293	0,068035	22,350000	51,555000
3,105835	475,059624	136,394	0,067433	22,350000	51,555000
3,103878	472,300467	136,494	0,066334	22,350000	51,555000
3,101873	470,730115	136,594	0,065709	22,350000	51,555000
3,099889	468,451879	136,694	0,064803	22,350000	51,555000
3,097845	467,088862	136,794	0,064260	22,350000	51,555000
3,095917	465,269463	136,895	0,063536	22,350000	51,555000
3,093849	462,933564	136,995	0,062606	22,360000	51,610000
3,091852	460,997615	137,096	0,061836	22,360000	51,610000
3,089938	457,207915	137,196	0,060328	22,360000	51,610000
3,087880	456,776068	137,297	0,060156	22,360000	51,610000
3,085885	454,765281	137,397	0,059355	22,360000	51,610000
3,083850	452,936067	137,497	0,058627	22,360000	51,610000
3,081892	451,273702	137,597	0,057966	22,360000	51,610000
3,079886	449,062942	137,697	0,057086	22,360000	51,610000
3,077853	445,506340	137,797	0,055670	22,360000	51,610000
3,075878	445,133382	137,897	0,055522	22,360000	51,610000
3,073907	443,379004	137,997	0,054824	22,360000	51,610000
3,071898	440,828410	138,097	0,053809	22,360000	51,610000
3,069875	438,999195	138,197	0,053081	22,360000	51,610000
3,067885	437,120907	138,298	0,052333	22,360000	51,610000
3,065927	435,583680	138,398	0,051721	22,360000	51,610000
3,063894	433,290721	138,498	0,050809	22,360000	51,610000
3,061863	431,295884	138,598	0,050015	22,360000	51,610000
3,059897	429,316995	138,698	0,049227	22,360000	51,610000
3,057822	427,248547	138,799	0,048404	22,360000	51,610000
3,055881	425,370260	138,899	0,047656	22,360000	51,610000
3,053895	423,450259	138,999	0,046892	22,350000	51,565000
3,051835	421,305747	139,099	0,046039	22,350000	51,565000
3,049830	419,112162	139,199	0,045166	22,350000	51,565000
3,047876	415,214500	139,299	0,043614	22,350000	51,565000
3,045918	415,214500	139,399	0,043614	22,350000	51,565000
3,043857	413,635561	139,499	0,042986	22,350000	51,565000
3,041857	411,383087	139,600	0,042089	22,350000	51,565000
3,039890	407,244965	139,700	0,040442	22,350000	51,565000
3,037920	407,227789	139,800	0,040436	22,350000	51,565000
3,035882	403,147328	139,900	0,038812	22,350000	51,565000
3,033895	401,169667	140,000	0,038024	22,350000	51,565000
3,031885	401,053117	140,100	0,037978	22,350000	51,565000
3,029923	399,299967	140,200	0,037280	22,350000	51,565000
3,027926	395,277167	140,300	0,035679	22,350000	51,565000
3,025873	393,532604	140,400	0,034985	22,350000	51,565000
3,023911	393,457767	140,500	0,034955	22,350000	51,565000
3,021881	391,586840	140,600	0,034210	22,350000	51,565000
3,019912	389,269345	140,701	0,033288	22,350000	51,565000
3,017925	387,490431	140,801	0,032580	22,350000	51,565000
3,015866	385,412168	140,901	0,031753	22,350000	51,565000
3,013900	383,451682	141,002	0,030973	22,350000	51,565000
3,011888	379,428883	141,103	0,029372	22,350000	51,565000
3,009886	377,384972	141,203	0,028558	22,350000	51,565000
3,007909	375,439208	141,303	0,027784	22,350000	51,565000
3,005875	373,553559	141,403	0,027033	22,350000	51,565000
3,003891	371,276549	141,503	0,026127	22,350000	51,565000
3,001857	369,473098	141,603	0,025409	22,350000	51,565000
2,999892	367,453724	141,703	0,024605	22,350000	51,565000
2,997857	365,251551	141,803	0,023729	22,350000	51,565000
2,995923	363,305787	141,903	0,022955	22,350000	51,565000
2,993873	361,178451	142,003	0,022108	22,350000	51,565000
2,991865	359,159077	142,103	0,021304	22,350000	51,565000
2,989878	358,112584	142,204	0,020888	22,350000	51,565000
2,987882	355,386552	142,304	0,019803	22,350000	51,565000
2,985814	353,208916	142,404	0,018936	22,350000	51,565000
2,983807	351,979625	142,505	0,018447	22,350000	51,565000
2,981922	351,572315	142,605	0,018285	22,350000	51,565000
2,979868	348,430384	142,706	0,017034	22,350000	51,565000
2,977885	346,269924	142,806	0,016174	22,350000	51,565000
2,975895	345,371879	142,906	0,015817	22,350000	51,565000
2,973918	343,161118	143,007	0,014937	22,350000	51,565000
2,971910	340,053539	143,107	0,013700	22,350000	51,565000
2,969929	338,881910	143,207	0,013234	22,350000	51,565000
2,967888	336,114165	143,308	0,012132	22,350000	51,565000
2,965859	335,149870	143,409	0,011749	22,350000	51,565000
2,963860	332,340413	143,509	0,010630	22,350000	51,565000
2,961903	331,650930	143,610	0,010356	22,350000	51,565000
2,959930	328,942074	143,710	0,009278	22,350000	51,565000
2,957894	327,105498	143,811	0,008547	22,350000	51,565000
2,955883	326,141204	143,911	0,008163	22,350000	51,565000
2,953880	323,058162	144,011	0,006936	22,350000	51,565000
2,951937	321,446098	144,111	0,006294	22,350000	51,565000
2,949866	319,717484	144,211	0,005606	22,350000	51,565000
2,947883	316,766940	144,311	0,004432	22,350000	51,565000
2,945873	313,334249	144,411	0,003066	22,350000	51,565000
2,943868	313,492511	144,512	0,003129	22,350000	51,565000
2,941874	311,863271	144,612	0,002480	22,350000	51,565000
2,939827	309,436587	144,713	0,001515	22,350000	51,565000
2,937974	305,780612	144,813	0,000060	22,350000	51,565000
2,935857	305,680011	144,913	0,000020	22,350000	51,565000
2,933847	303,744062	145,014	-0,000751	22,350000	51,565000
2,931912	301,691563	145,114	-0,001568	22,350000	51,565000
2,929916	299,821863	145,215	-0,002312	22,350000	51,565000
2,927885	295,898438	145,315	-0,003874	22,350000	51,565000
2,925857	293,579715	145,416	-0,004796	22,350000	51,565000
2,923914	293,788277	145,516	-0,004713	22,350000	51,565000
2,921875	291,817977	145,616	-0,005498	22,350000	51,565000
2,919897	289,907791	145,716	-0,006258	22,350000	51,565000
2,917852	287,746104	145,816	-0,007118	22,350000	51,565000
2,915926	283,898742	145,916	-0,008649	22,350000	51,565000
2,913935	281,820479	146,016	-0,009477	22,350000	51,565000
2,911845	279,684556	146,116	-0,010327	22,350000	51,565000
2,909911	278,063904	146,216	-0,010972	22,350000	51,565000
2,907879	275,795481	146,317	-0,011875	22,350000	51,565000
2,905916	273,742982	146,417	-0,012691	22,350000	51,565000
2,903862	273,650970	146,517	-0,012728	22,350000	51,565000
2,901932	271,631595	146,617	-0,013532	22,350000	51,565000
2,899958	269,779071	146,717	-0,014269	22,350000	51,565000
2,897949	268,473716	146,818	-0,014789	22,350000	51,565000
2,895925	265,789396	146,918	-0,015857	22,350000	51,565000
2,893895	264,077958	147,018	-0,016538	22,340000	51,555000
2,891880	260,112820	147,118	-0,018116	22,340000	51,555000
2,889893	258,086085	147,218	-0,018923	22,340000	51,555000
2,887913	256,223746	147,318	-0,019664	22,340000	51,555000
2,885883	256,182033	147,418	-0,019681	22,340000	51,555000
2,883950	252,101572	147,518	-0,021305	22,340000	51,555000
2,881843	249,833150	147,618	-0,022208	22,340000	51,555000
2,879882	250,332473	147,718	-0,022009	22,340000	51,555000
2,877840	247,938913	147,818	-0,022961	22,340000	51,555000
2,875866	244,048612	147,919	-0,024510	22,340000	51,555000
2,873988	244,098913	148,020	-0,024490	22,340000	51,555000
2,871895	240,060164	148,121	-0,026097	22,340000	51,555000
2,869897	238,638260	148,221	-0,026663	22,340000	51,555000
2,867888	236,345301	148,322	-0,027576	22,340000	51,555000
2,865925	235,854566	148,422	-0,027771	22,340000	51,555000
2,863913	232,921198	148,523	-0,028938	22,340000	51,555000
2,861918	230,544814	148,623	-0,029884	22,340000	51,555000
2,859958	228,748724	148,724	-0,030599	22,340000	51,555000
2,857954	226,165005	148,824	-0,031627	22,340000	51,555000
2,855877	225,176174	148,924	-0,032021	22,340000	51,555000
2,853892	222,599815	149,024	-0,033046	22,340000	51,555000
2,851899	221,510384	149,125	-0,033480	22,340000	51,555000
2,849904	218,377041	149,225	-0,034727	22,340000	51,555000
2,847904	218,112045	149,325	-0,034833	22,340000	51,555000
2,845935	216,407968	149,425	-0,035511	22,340000	51,555000
2,843883	213,481961	149,525	-0,036675	22,340000	51,555000
2,841918	211,554599	149,625	-0,037442	22,340000	51,555000
2,839943	209,502100	149,725	-0,038259	22,340000	51,555000
2,837875	206,527020	149,825	-0,039443	22,340000	51,555000
2,835948	206,318458	149,926	-0,039526	22,340000	51,555000
2,833934	202,487045	150,026	-0,041051	22,340000	51,555000
2,831905	201,182917	150,126	-0,041570	22,340000	51,555000
2,829900	199,661638	150,226	-0,042176	22,340000	51,555000
2,827927	197,941612	150,326	-0,042860	22,340000	51,555000
2,825923	194,252513	150,426	-0,044329	22,340000	51,555000
2,823902	194,019413	150,526	-0,044421	22,340000	51,555000
2,821914	191,784116	150,627	-0,045311	22,340000	51,555000
2,819842	190,121751	150,728	-0,045973	22,340000	51,555000
2,817958	188,426262	150,828	-0,046647	22,340000	51,555000
2,815914	186,539386	150,929	-0,047398	22,340000	51,555000
2,813939	182,458925	151,030	-0,049022	22,360000	51,610000
2,811930	180,472676	151,130	-0,049813	22,360000	51,610000
2,809891	180,630938	151,230	-0,049750	22,360000	51,610000
2,807881	178,395640	151,330	-0,050640	22,360000	51,610000
2,805870	176,566426	151,431	-0,051368	22,360000	51,610000
2,803967	174,464854	151,532	-0,052204	22,360000	51,610000
2,801899	170,741402	151,633	-0,053686	22,360000	51,610000
2,799866	170,158655	151,734	-0,053918	22,360000	51,610000
2,797898	168,530641	151,834	-0,054566	22,360000	51,610000
2,795913	166,119906	151,934	-0,055525	22,360000	51,610000
2,793934	162,397682	152,034	-0,057007	22,360000	51,610000
2,791946	160,460506	152,134	-0,057778	22,360000	51,610000
2,789908	158,176135	152,234	-0,058687	22,360000	51,610000
2,787909	157,817898	152,334	-0,058830	22,360000	51,610000
2,785904	157,053578	152,434	-0,059134	22,360000	51,610000
2,783848	154,402383	152,535	-0,060189	22,360000	51,610000
2,781943	152,257871	152,635	-0,061042	22,360000	51,610000
2,779887	150,504721	152,735	-0,061740	22,360000	51,610000
2,777856	147,188580	152,836	-0,063060	22,360000	51,610000
2,775904	144,786432	152,936	-0,064016	22,350000	51,580000
2,773874	142,359748	153,036	-0,064982	22,350000	51,580000
2,771933	140,831109	153,136	-0,065590	22,350000	51,580000
2,769969	138,895159	153,236	-0,066361	22,350000	51,580000
2,767910	136,501600	153,336	-0,067313	22,350000	51,580000
2,765891	134,764398	153,436	-0,068005	22,350000	51,580000
2,763885	133,526519	153,536	-0,068498	22,350000	51,580000
2,761871	130,741599	153,637	-0,069606	22,350000	51,580000
2,759877	130,542851	153,738	-0,069685	22,350000	51,580000
2,757948	129,021573	153,838	-0,070291	22,350000	51,580000
2,755898	126,802224	153,939	-0,071174	22,350000	51,580000
2,753931	122,772063	154,039	-0,072778	22,350000	51,580000
2,751881	123,062824	154,140	-0,072662	22,350000	51,580000
2,749894	119,273123	154,240	-0,074170	22,350000	51,580000
2,747918	118,268344	154,340	-0,074570	22,350000	51,580000
2,745940	115,716522	154,440	-0,075586	22,350000	51,580000
2,743901	114,287257	154,541	-0,076155	22,350000	51,580000
2,741944	112,159921	154,642	-0,077001	22,350000	51,580000
2,739918	111,004240	154,742	-0,077461	22,350000	51,580000
2,737908	106,998616	154,843	-0,079056	22,350000	51,580000
2,735889	106,674731	154,944	-0,079185	22,360000	51,585000
2,733893	105,212341	155,045	-0,079767	22,360000	51,585000
2,731909	103,341414	155,145	-0,080511	22,360000	51,585000
2,729933	101,173593	155,246	-0,081374	22,360000	51,585000
2,727865	99,652314	155,346	-0,081979	22,360000	51,585000
2,725933	95,961988	155,447	-0,083448	22,360000	51,585000
2,723988	95,512965	155,547	-0,083627	22,360000	51,585000
2,721946	91,125795	155,647	-0,085373	22,360000	51,585000
2,719933	89,322344	155,748	-0,086091	22,360000	51,585000
2,717907	87,252670	155,848	-0,086915	22,360000	51,585000
2,715882	85,407506	155,948	-0,087649	22,360000	51,585000
2,713918	83,346420	156,048	-0,088469	22,360000	51,585000
2,711895	83,304707	156,148	-0,088486	22,360000	51,585000
2,709877	81,244847	156,248	-0,089306	22,360000	51,585000
2,707957	77,163160	156,348	-0,090930	22,360000	51,585000
2,705979	75,476258	156,449	-0,091602	22,360000	51,585000
2,703895	75,451721	156,550	-0,091611	22,360000	51,585000
2,701930	73,082699	156,650	-0,092554	22,360000	51,585000
2,699990	71,378622	156,750	-0,093232	22,360000	51,585000
2,697903	66,991451	156,851	-0,094979	22,360000	51,585000
2,695883	65,287374	156,951	-0,095657	22,360000	51,585000
2,693903	63,325662	157,051	-0,096437	22,360000	51,585000
2,691906	61,281751	157,151	-0,097251	22,360000	51,585000
2,689927	59,229252	157,251	-0,098068	22,360000	51,585000
2,687871	59,429226	157,351	-0,097988	22,360000	51,585000
2,685877	56,969417	157,451	-0,098967	22,360000	51,585000
2,683915	55,215040	157,551	-0,099666	22,360000	51,585000
2,681891	51,433927	157,652	-0,101170	22,360000	51,585000
2,679882	49,896700	157,752	-0,101782	22,360000	51,585000
2,677894	47,120367	157,852	-0,102887	22,360000	51,585000
2,675896	45,516891	157,953	-0,103525	22,360000	51,585000
2,673866	44,968495	158,053	-0,103744	22,360000	51,585000
2,671915	42,998194	158,154	-0,104528	22,360000	51,585000
2,669931	39,540967	158,254	-0,105904	22,360000	51,585000
2,667857	36,964608	158,354	-0,106929	22,360000	51,585000
2,665876	35,178333	158,454	-0,107640	22,360000	51,585000
2,663941	32,934448	158,554	-0,108533	22,360000	51,585000
2,661917	30,939610	158,654	-0,109327	22,360000	51,585000
2,659900	29,078498	158,755	-0,110068	22,360000	51,585000
2,657933	26,909450	158,855	-0,110931	22,360000	51,585000
2,655896	24,989449	158,955	-0,111695	22,360000	51,560000
2,653877	22,978663	159,055	-0,112496	22,360000	51,560000
2,651910	21,424260	159,156	-0,113114	22,360000	51,560000
2,649971	18,623390	159,256	-0,114229	22,360000	51,560000
2,647967	18,398879	159,356	-0,114318	22,360000	51,560000
2,645924	15,241000	159,456	-0,115575	22,360000	51,560000
2,643889	14,426380	159,556	-0,115899	22,360000	51,560000
2,641947	12,822904	159,656	-0,116538	22,360000	51,560000
2,639937	9,797523	159,756	-0,117742	22,360000	51,560000
2,637853	8,517931	159,856	-0,118251	22,360000	51,560000
2,635924	4,620269	159,956	-0,119802	22,360000	51,560000
2,633893	3,248665	160,056	-0,120348	22,360000	51,560000
2,631923	2,724806	160,156	-0,120557	22,360000	51,560000
2,629877	0,414671	160,256	-0,121476	22,360000	51,560000
2,627920	-1,688128	160,356	-0,122313	22,360000	51,560000
2,625894	-4,928205	160,456	-0,123603	22,360000	51,560000
2,623933	-6,707120	160,556	-0,124311	22,360000	51,560000
2,621958	-8,784155	160,656	-0,125137	22,360000	51,560000
2,619922	-10,222008	160,756	-0,125709	22,360000	51,560000
